FW version: 24
Log Version: 3.0.3

General Info:
       Command/Macro Performed,            Timestamp,             Device ID, COM Port, UART/I2C, Test Name, Host Major, Host Minor, Host Revision, Host Git Commit
            Single_measurement,  2023_06_30_11_00_56,       Insight2_F4_xxx,    USB-C,      USB,          ,          0,          1,             1,      4031237645

Show Spectrometer Status:
l0_version, f4_version, battery_perc, battery_mVolt, accelerometer_temp, accelerometer_x, accelerometer_y, accelerometer_z, compass_temp, compass_x, compass_y, compass_z, lamp_0, lamp_1, gain_0, gain_1
        17,         24,           93,          2073,               6048,           65312,             300,           18464,            0,     65380,     65404,     18468,   3276,   3276,      1,      1

Temperature Statistic Info:
NTC AVG [°C], NTC2 AVG [°C]
      38.479,        38.128

Statistic Info:
M1:  num,      min,      max,   median,      AVG,      STD,M2:  num,      min,      max,   median,      AVG,      STD
     301,  2011.00,  2305.00,  2072.00,  2107.82,  90.9460,     401,  2598.00,  2778.00,  2671.00,  2676.91,  58.4548,

Measurements:
Wavelength, Data Amplitude
1350, 2066.00
1351, 2066.00
1352, 2066.00
1353, 2064.00
1354, 2062.00
1355, 2062.00
1356, 2061.00
1357, 2059.00
1358, 2058.00
1359, 2057.00
1360, 2057.00
1361, 2056.00
1362, 2054.00
1363, 2052.00
1364, 2050.00
1365, 2050.00
1366, 2047.00
1367, 2047.00
1368, 2046.00
1369, 2043.00
1370, 2042.00
1371, 2041.00
1372, 2039.00
1373, 2037.00
1374, 2037.00
1375, 2035.00
1376, 2033.00
1377, 2031.00
1378, 2030.00
1379, 2031.00
1380, 2028.00
1381, 2028.00
1382, 2026.00
1383, 2026.00
1384, 2023.00
1385, 2025.00
1386, 2023.00
1387, 2023.00
1388, 2022.00
1389, 2021.00
1390, 2020.00
1391, 2019.00
1392, 2019.00
1393, 2019.00
1394, 2018.00
1395, 2018.00
1396, 2017.00
1397, 2017.00
1398, 2018.00
1399, 2016.00
1400, 2016.00
1401, 2015.00
1402, 2015.00
1403, 2015.00
1404, 2013.00
1405, 2015.00
1406, 2015.00
1407, 2014.00
1408, 2014.00
1409, 2013.00
1410, 2014.00
1411, 2014.00
1412, 2014.00
1413, 2013.00
1414, 2013.00
1415, 2011.00
1416, 2011.00
1417, 2013.00
1418, 2013.00
1419, 2012.00
1420, 2013.00
1421, 2012.00
1422, 2012.00
1423, 2012.00
1424, 2013.00
1425, 2013.00
1426, 2012.00
1427, 2012.00
1428, 2013.00
1429, 2013.00
1430, 2014.00
1431, 2014.00
1432, 2013.00
1433, 2015.00
1434, 2015.00
1435, 2014.00
1436, 2016.00
1437, 2015.00
1438, 2015.00
1439, 2017.00
1440, 2016.00
1441, 2017.00
1442, 2018.00
1443, 2018.00
1444, 2019.00
1445, 2018.00
1446, 2019.00
1447, 2021.00
1448, 2022.00
1449, 2021.00
1450, 2023.00
1451, 2023.00
1452, 2024.00
1453, 2025.00
1454, 2024.00
1455, 2026.00
1456, 2026.00
1457, 2027.00
1458, 2027.00
1459, 2027.00
1460, 2028.00
1461, 2029.00
1462, 2031.00
1463, 2031.00
1464, 2031.00
1465, 2032.00
1466, 2034.00
1467, 2034.00
1468, 2035.00
1469, 2037.00
1470, 2037.00
1471, 2037.00
1472, 2038.00
1473, 2040.00
1474, 2040.00
1475, 2042.00
1476, 2043.00
1477, 2044.00
1478, 2045.00
1479, 2047.00
1480, 2049.00
1481, 2049.00
1482, 2050.00
1483, 2052.00
1484, 2053.00
1485, 2053.00
1486, 2054.00
1487, 2057.00
1488, 2056.00
1489, 2059.00
1490, 2060.00
1491, 2061.00
1492, 2062.00
1493, 2063.00
1494, 2065.00
1495, 2065.00
1496, 2067.00
1497, 2068.00
1498, 2069.00
1499, 2069.00
1500, 2072.00
1501, 2073.00
1502, 2075.00
1503, 2076.00
1504, 2075.00
1505, 2076.00
1506, 2079.00
1507, 2079.00
1508, 2081.00
1509, 2082.00
1510, 2083.00
1511, 2085.00
1512, 2086.00
1513, 2087.00
1514, 2088.00
1515, 2091.00
1516, 2091.00
1517, 2093.00
1518, 2095.00
1519, 2095.00
1520, 2096.00
1521, 2098.00
1522, 2100.00
1523, 2101.00
1524, 2102.00
1525, 2104.00
1526, 2106.00
1527, 2108.00
1528, 2110.00
1529, 2110.00
1530, 2111.00
1531, 2115.00
1532, 2114.00
1533, 2116.00
1534, 2117.00
1535, 2119.00
1536, 2120.00
1537, 2122.00
1538, 2123.00
1539, 2124.00
1540, 2126.00
1541, 2128.00
1542, 2129.00
1543, 2130.00
1544, 2132.00
1545, 2133.00
1546, 2134.00
1547, 2136.00
1548, 2138.00
1549, 2139.00
1550, 2140.00
1551, 2143.00
1552, 2144.00
1553, 2146.00
1554, 2148.00
1555, 2149.00
1556, 2151.00
1557, 2153.00
1558, 2155.00
1559, 2155.00
1560, 2157.00
1561, 2159.00
1562, 2161.00
1563, 2163.00
1564, 2164.00
1565, 2166.00
1566, 2168.00
1567, 2169.00
1568, 2171.00
1569, 2173.00
1570, 2174.00
1571, 2175.00
1572, 2178.00
1573, 2180.00
1574, 2180.00
1575, 2183.00
1576, 2184.00
1577, 2186.00
1578, 2188.00
1579, 2189.00
1580, 2191.00
1581, 2193.00
1582, 2192.00
1583, 2195.00
1584, 2197.00
1585, 2197.00
1586, 2198.00
1587, 2200.00
1588, 2201.00
1589, 2203.00
1590, 2205.00
1591, 2207.00
1592, 2208.00
1593, 2209.00
1594, 2210.00
1595, 2211.00
1596, 2213.00
1597, 2215.00
1598, 2217.00
1599, 2217.00
1600, 2220.00
1601, 2222.00
1602, 2223.00
1603, 2224.00
1604, 2226.00
1605, 2227.00
1606, 2229.00
1607, 2230.00
1608, 2233.00
1609, 2234.00
1610, 2238.00
1611, 2239.00
1612, 2242.00
1613, 2242.00
1614, 2244.00
1615, 2245.00
1616, 2247.00
1617, 2249.00
1618, 2251.00
1619, 2254.00
1620, 2255.00
1621, 2257.00
1622, 2258.00
1623, 2261.00
1624, 2263.00
1625, 2264.00
1626, 2265.00
1627, 2267.00
1628, 2269.00
1629, 2272.00
1630, 2274.00
1631, 2274.00
1632, 2276.00
1633, 2278.00
1634, 2280.00
1635, 2281.00
1636, 2282.00
1637, 2285.00
1638, 2286.00
1639, 2286.00
1640, 2289.00
1641, 2291.00
1642, 2292.00
1643, 2293.00
1644, 2295.00
1645, 2295.00
1646, 2297.00
1647, 2300.00
1648, 2301.00
1649, 2302.00
1650, 2305.00

1750, 2775.00
1751, 2778.00
1752, 2777.00
1753, 2777.00
1754, 2777.00
1755, 2777.00
1756, 2777.00
1757, 2777.00
1758, 2775.00
1759, 2777.00
1760, 2775.00
1761, 2776.00
1762, 2778.00
1763, 2776.00
1764, 2775.00
1765, 2775.00
1766, 2777.00
1767, 2775.00
1768, 2775.00
1769, 2777.00
1770, 2774.00
1771, 2774.00
1772, 2773.00
1773, 2773.00
1774, 2772.00
1775, 2771.00
1776, 2771.00
1777, 2771.00
1778, 2771.00
1779, 2769.00
1780, 2771.00
1781, 2769.00
1782, 2767.00
1783, 2768.00
1784, 2766.00
1785, 2766.00
1786, 2765.00
1787, 2766.00
1788, 2763.00
1789, 2763.00
1790, 2763.00
1791, 2762.00
1792, 2759.00
1793, 2762.00
1794, 2761.00
1795, 2759.00
1796, 2759.00
1797, 2759.00
1798, 2758.00
1799, 2758.00
1800, 2756.00
1801, 2753.00
1802, 2755.00
1803, 2757.00
1804, 2756.00
1805, 2753.00
1806, 2752.00
1807, 2754.00
1808, 2751.00
1809, 2753.00
1810, 2749.00
1811, 2751.00
1812, 2749.00
1813, 2748.00
1814, 2747.00
1815, 2747.00
1816, 2747.00
1817, 2745.00
1818, 2744.00
1819, 2743.00
1820, 2743.00
1821, 2743.00
1822, 2741.00
1823, 2738.00
1824, 2738.00
1825, 2736.00
1826, 2734.00
1827, 2733.00
1828, 2731.00
1829, 2730.00
1830, 2728.00
1831, 2725.00
1832, 2725.00
1833, 2722.00
1834, 2721.00
1835, 2720.00
1836, 2715.00
1837, 2714.00
1838, 2711.00
1839, 2711.00
1840, 2708.00
1841, 2704.00
1842, 2701.00
1843, 2697.00
1844, 2695.00
1845, 2693.00
1846, 2691.00
1847, 2688.00
1848, 2687.00
1849, 2683.00
1850, 2679.00
1851, 2677.00
1852, 2675.00
1853, 2672.00
1854, 2670.00
1855, 2667.00
1856, 2664.00
1857, 2662.00
1858, 2659.00
1859, 2657.00
1860, 2654.00
1861, 2652.00
1862, 2649.00
1863, 2649.00
1864, 2646.00
1865, 2641.00
1866, 2640.00
1867, 2637.00
1868, 2635.00
1869, 2634.00
1870, 2633.00
1871, 2632.00
1872, 2630.00
1873, 2627.00
1874, 2627.00
1875, 2625.00
1876, 2623.00
1877, 2623.00
1878, 2622.00
1879, 2621.00
1880, 2620.00
1881, 2619.00
1882, 2616.00
1883, 2617.00
1884, 2615.00
1885, 2615.00
1886, 2613.00
1887, 2614.00
1888, 2613.00
1889, 2612.00
1890, 2611.00
1891, 2611.00
1892, 2611.00
1893, 2608.00
1894, 2608.00
1895, 2607.00
1896, 2607.00
1897, 2607.00
1898, 2607.00
1899, 2606.00
1900, 2606.00
1901, 2606.00
1902, 2605.00
1903, 2604.00
1904, 2605.00
1905, 2605.00
1906, 2605.00
1907, 2601.00
1908, 2603.00
1909, 2604.00
1910, 2603.00
1911, 2602.00
1912, 2599.00
1913, 2601.00
1914, 2603.00
1915, 2603.00
1916, 2600.00
1917, 2601.00
1918, 2601.00
1919, 2602.00
1920, 2601.00
1921, 2600.00
1922, 2600.00
1923, 2599.00
1924, 2599.00
1925, 2600.00
1926, 2599.00
1927, 2599.00
1928, 2599.00
1929, 2603.00
1930, 2598.00
1931, 2601.00
1932, 2603.00
1933, 2601.00
1934, 2599.00
1935, 2600.00
1936, 2599.00
1937, 2600.00
1938, 2601.00
1939, 2601.00
1940, 2601.00
1941, 2601.00
1942, 2603.00
1943, 2602.00
1944, 2601.00
1945, 2602.00
1946, 2602.00
1947, 2603.00
1948, 2603.00
1949, 2603.00
1950, 2605.00
1951, 2604.00
1952, 2606.00
1953, 2607.00
1954, 2607.00
1955, 2605.00
1956, 2607.00
1957, 2607.00
1958, 2608.00
1959, 2608.00
1960, 2606.00
1961, 2609.00
1962, 2609.00
1963, 2610.00
1964, 2609.00
1965, 2611.00
1966, 2614.00
1967, 2612.00
1968, 2614.00
1969, 2613.00
1970, 2612.00
1971, 2614.00
1972, 2615.00
1973, 2613.00
1974, 2617.00
1975, 2617.00
1976, 2617.00
1977, 2618.00
1978, 2620.00
1979, 2618.00
1980, 2620.00
1981, 2621.00
1982, 2620.00
1983, 2623.00
1984, 2622.00
1985, 2623.00
1986, 2624.00
1987, 2625.00
1988, 2623.00
1989, 2626.00
1990, 2625.00
1991, 2627.00
1992, 2628.00
1993, 2628.00
1994, 2629.00
1995, 2630.00
1996, 2631.00
1997, 2630.00
1998, 2633.00
1999, 2631.00
2000, 2633.00
2001, 2633.00
2002, 2633.00
2003, 2635.00
2004, 2634.00
2005, 2636.00
2006, 2635.00
2007, 2637.00
2008, 2637.00
2009, 2639.00
2010, 2640.00
2011, 2639.00
2012, 2641.00
2013, 2642.00
2014, 2642.00
2015, 2642.00
2016, 2643.00
2017, 2642.00
2018, 2645.00
2019, 2644.00
2020, 2644.00
2021, 2643.00
2022, 2647.00
2023, 2647.00
2024, 2648.00
2025, 2647.00
2026, 2649.00
2027, 2650.00
2028, 2651.00
2029, 2651.00
2030, 2651.00
2031, 2652.00
2032, 2652.00
2033, 2655.00
2034, 2654.00
2035, 2657.00
2036, 2656.00
2037, 2656.00
2038, 2659.00
2039, 2659.00
2040, 2658.00
2041, 2660.00
2042, 2661.00
2043, 2663.00
2044, 2661.00
2045, 2663.00
2046, 2665.00
2047, 2666.00
2048, 2665.00
2049, 2668.00
2050, 2669.00
2051, 2669.00
2052, 2670.00
2053, 2671.00
2054, 2671.00
2055, 2672.00
2056, 2675.00
2057, 2676.00
2058, 2676.00
2059, 2679.00
2060, 2679.00
2061, 2681.00
2062, 2681.00
2063, 2681.00
2064, 2681.00
2065, 2683.00
2066, 2685.00
2067, 2685.00
2068, 2686.00
2069, 2687.00
2070, 2689.00
2071, 2687.00
2072, 2692.00
2073, 2691.00
2074, 2692.00
2075, 2693.00
2076, 2694.00
2077, 2696.00
2078, 2696.00
2079, 2698.00
2080, 2696.00
2081, 2699.00
2082, 2699.00
2083, 2700.00
2084, 2699.00
2085, 2702.00
2086, 2702.00
2087, 2702.00
2088, 2704.00
2089, 2704.00
2090, 2704.00
2091, 2706.00
2092, 2707.00
2093, 2707.00
2094, 2709.00
2095, 2710.00
2096, 2708.00
2097, 2709.00
2098, 2709.00
2099, 2709.00
2100, 2711.00
2101, 2713.00
2102, 2713.00
2103, 2712.00
2104, 2714.00
2105, 2715.00
2106, 2715.00
2107, 2716.00
2108, 2718.00
2109, 2715.00
2110, 2717.00
2111, 2717.00
2112, 2718.00
2113, 2719.00
2114, 2719.00
2115, 2717.00
2116, 2719.00
2117, 2720.00
2118, 2720.00
2119, 2720.00
2120, 2722.00
2121, 2723.00
2122, 2722.00
2123, 2723.00
2124, 2725.00
2125, 2724.00
2126, 2723.00
2127, 2725.00
2128, 2723.00
2129, 2725.00
2130, 2724.00
2131, 2726.00
2132, 2727.00
2133, 2727.00
2134, 2727.00
2135, 2728.00
2136, 2727.00
2137, 2727.00
2138, 2728.00
2139, 2728.00
2140, 2728.00
2141, 2727.00
2142, 2730.00
2143, 2731.00
2144, 2731.00
2145, 2728.00
2146, 2732.00
2147, 2730.00
2148, 2732.00
2149, 2732.00
2150, 2733.00
