FW version: 24
Log Version: 3.0.3

General Info:
       Command/Macro Performed,            Timestamp,             Device ID, COM Port, UART/I2C, Test Name, Host Major, Host Minor, Host Revision, Host Git Commit
            Single_measurement,  2023_06_27_11_36_31,       Insight2_F4_xxx,    USB-C,      USB,          ,          0,          1,             1,      4031237645

Show Spectrometer Status:
l0_version, f4_version, battery_perc, battery_mVolt, accelerometer_temp, accelerometer_x, accelerometer_y, accelerometer_z, compass_temp, compass_x, compass_y, compass_z, lamp_0, lamp_1, gain_0, gain_1
        17,         24,           95,          2078,               5312,           65416,           65532,           18444,            0,     65434,     65532,     65470,   2457,   2457,    1,    1

Temperature Statistic Info:
NTC AVG [°C], NTC2 AVG [°C]
      36.437,        36.120

Statistic Info:
M1:  num,      min,      max,   median,      AVG,      STD,M2:  num,      min,      max,   median,      AVG,      STD
     301,   905.00,  1043.00,   935.00,   950.72,  42.1489,     401,  1299.00,  1381.00,  1335.00,  1336.64,  27.1520,

Measurements:
Wavelength, Data Amplitude
1350, 929.00
1351, 929.00
1352, 927.00
1353, 928.00
1354, 927.00
1355, 927.00
1356, 927.00
1357, 925.00
1358, 926.00
1359, 924.00
1360, 924.00
1361, 924.00
1362, 923.00
1363, 922.00
1364, 921.00
1365, 921.00
1366, 921.00
1367, 921.00
1368, 919.00
1369, 919.00
1370, 919.00
1371, 918.00
1372, 917.00
1373, 917.00
1374, 917.00
1375, 915.00
1376, 915.00
1377, 914.00
1378, 914.00
1379, 913.00
1380, 914.00
1381, 913.00
1382, 913.00
1383, 912.00
1384, 911.00
1385, 912.00
1386, 911.00
1387, 911.00
1388, 909.00
1389, 910.00
1390, 910.00
1391, 910.00
1392, 908.00
1393, 909.00
1394, 909.00
1395, 907.00
1396, 908.00
1397, 908.00
1398, 908.00
1399, 907.00
1400, 907.00
1401, 908.00
1402, 907.00
1403, 906.00
1404, 907.00
1405, 907.00
1406, 907.00
1407, 907.00
1408, 907.00
1409, 907.00
1410, 906.00
1411, 907.00
1412, 907.00
1413, 907.00
1414, 906.00
1415, 906.00
1416, 906.00
1417, 906.00
1418, 906.00
1419, 905.00
1420, 907.00
1421, 906.00
1422, 906.00
1423, 907.00
1424, 908.00
1425, 907.00
1426, 907.00
1427, 906.00
1428, 908.00
1429, 907.00
1430, 906.00
1431, 908.00
1432, 908.00
1433, 907.00
1434, 908.00
1435, 909.00
1436, 909.00
1437, 908.00
1438, 908.00
1439, 909.00
1440, 909.00
1441, 909.00
1442, 910.00
1443, 910.00
1444, 911.00
1445, 910.00
1446, 910.00
1447, 911.00
1448, 910.00
1449, 911.00
1450, 912.00
1451, 911.00
1452, 912.00
1453, 912.00
1454, 912.00
1455, 912.00
1456, 913.00
1457, 913.00
1458, 914.00
1459, 915.00
1460, 915.00
1461, 915.00
1462, 914.00
1463, 916.00
1464, 916.00
1465, 917.00
1466, 917.00
1467, 917.00
1468, 918.00
1469, 917.00
1470, 919.00
1471, 919.00
1472, 920.00
1473, 920.00
1474, 921.00
1475, 921.00
1476, 922.00
1477, 922.00
1478, 922.00
1479, 924.00
1480, 924.00
1481, 924.00
1482, 924.00
1483, 924.00
1484, 925.00
1485, 927.00
1486, 927.00
1487, 927.00
1488, 928.00
1489, 929.00
1490, 929.00
1491, 930.00
1492, 931.00
1493, 931.00
1494, 931.00
1495, 933.00
1496, 933.00
1497, 935.00
1498, 934.00
1499, 934.00
1500, 935.00
1501, 936.00
1502, 937.00
1503, 937.00
1504, 938.00
1505, 938.00
1506, 938.00
1507, 939.00
1508, 940.00
1509, 940.00
1510, 941.00
1511, 940.00
1512, 942.00
1513, 943.00
1514, 944.00
1515, 944.00
1516, 944.00
1517, 945.00
1518, 946.00
1519, 947.00
1520, 947.00
1521, 948.00
1522, 950.00
1523, 949.00
1524, 950.00
1525, 951.00
1526, 951.00
1527, 952.00
1528, 952.00
1529, 953.00
1530, 954.00
1531, 955.00
1532, 955.00
1533, 956.00
1534, 957.00
1535, 957.00
1536, 958.00
1537, 959.00
1538, 958.00
1539, 959.00
1540, 960.00
1541, 961.00
1542, 961.00
1543, 963.00
1544, 964.00
1545, 964.00
1546, 964.00
1547, 965.00
1548, 965.00
1549, 966.00
1550, 966.00
1551, 967.00
1552, 968.00
1553, 969.00
1554, 969.00
1555, 969.00
1556, 971.00
1557, 972.00
1558, 973.00
1559, 973.00
1560, 974.00
1561, 974.00
1562, 975.00
1563, 977.00
1564, 975.00
1565, 977.00
1566, 978.00
1567, 979.00
1568, 980.00
1569, 980.00
1570, 981.00
1571, 982.00
1572, 983.00
1573, 983.00
1574, 984.00
1575, 985.00
1576, 985.00
1577, 986.00
1578, 987.00
1579, 987.00
1580, 989.00
1581, 988.00
1582, 990.00
1583, 990.00
1584, 990.00
1585, 991.00
1586, 992.00
1587, 993.00
1588, 993.00
1589, 994.00
1590, 995.00
1591, 995.00
1592, 996.00
1593, 997.00
1594, 997.00
1595, 998.00
1596, 999.00
1597, 999.00
1598, 1000.00
1599, 1001.00
1600, 1001.00
1601, 1002.00
1602, 1003.00
1603, 1004.00
1604, 1005.00
1605, 1006.00
1606, 1007.00
1607, 1007.00
1608, 1008.00
1609, 1009.00
1610, 1010.00
1611, 1011.00
1612, 1012.00
1613, 1013.00
1614, 1012.00
1615, 1014.00
1616, 1015.00
1617, 1015.00
1618, 1017.00
1619, 1018.00
1620, 1017.00
1621, 1019.00
1622, 1020.00
1623, 1021.00
1624, 1021.00
1625, 1022.00
1626, 1024.00
1627, 1025.00
1628, 1026.00
1629, 1026.00
1630, 1026.00
1631, 1029.00
1632, 1029.00
1633, 1029.00
1634, 1031.00
1635, 1032.00
1636, 1032.00
1637, 1033.00
1638, 1034.00
1639, 1034.00
1640, 1035.00
1641, 1037.00
1642, 1037.00
1643, 1037.00
1644, 1038.00
1645, 1039.00
1646, 1040.00
1647, 1040.00
1648, 1041.00
1649, 1043.00
1650, 1043.00

1750, 1380.00
1751, 1381.00
1752, 1381.00
1753, 1381.00
1754, 1381.00
1755, 1380.00
1756, 1381.00
1757, 1379.00
1758, 1381.00
1759, 1381.00
1760, 1379.00
1761, 1381.00
1762, 1379.00
1763, 1381.00
1764, 1380.00
1765, 1380.00
1766, 1380.00
1767, 1381.00
1768, 1378.00
1769, 1380.00
1770, 1381.00
1771, 1379.00
1772, 1378.00
1773, 1380.00
1774, 1377.00
1775, 1380.00
1776, 1380.00
1777, 1378.00
1778, 1377.00
1779, 1379.00
1780, 1376.00
1781, 1378.00
1782, 1376.00
1783, 1376.00
1784, 1377.00
1785, 1377.00
1786, 1376.00
1787, 1375.00
1788, 1375.00
1789, 1373.00
1790, 1375.00
1791, 1375.00
1792, 1373.00
1793, 1374.00
1794, 1374.00
1795, 1374.00
1796, 1373.00
1797, 1372.00
1798, 1373.00
1799, 1373.00
1800, 1373.00
1801, 1373.00
1802, 1373.00
1803, 1371.00
1804, 1371.00
1805, 1369.00
1806, 1369.00
1807, 1371.00
1808, 1372.00
1809, 1370.00
1810, 1369.00
1811, 1369.00
1812, 1370.00
1813, 1369.00
1814, 1370.00
1815, 1367.00
1816, 1369.00
1817, 1367.00
1818, 1367.00
1819, 1366.00
1820, 1367.00
1821, 1367.00
1822, 1366.00
1823, 1366.00
1824, 1364.00
1825, 1364.00
1826, 1363.00
1827, 1361.00
1828, 1363.00
1829, 1361.00
1830, 1360.00
1831, 1361.00
1832, 1359.00
1833, 1357.00
1834, 1357.00
1835, 1357.00
1836, 1356.00
1837, 1355.00
1838, 1352.00
1839, 1352.00
1840, 1350.00
1841, 1351.00
1842, 1350.00
1843, 1348.00
1844, 1347.00
1845, 1345.00
1846, 1344.00
1847, 1343.00
1848, 1341.00
1849, 1341.00
1850, 1338.00
1851, 1335.00
1852, 1335.00
1853, 1334.00
1854, 1333.00
1855, 1331.00
1856, 1331.00
1857, 1330.00
1858, 1328.00
1859, 1325.00
1860, 1325.00
1861, 1324.00
1862, 1321.00
1863, 1323.00
1864, 1320.00
1865, 1320.00
1866, 1318.00
1867, 1318.00
1868, 1318.00
1869, 1317.00
1870, 1315.00
1871, 1316.00
1872, 1314.00
1873, 1311.00
1874, 1314.00
1875, 1312.00
1876, 1311.00
1877, 1311.00
1878, 1310.00
1879, 1312.00
1880, 1310.00
1881, 1309.00
1882, 1308.00
1883, 1308.00
1884, 1306.00
1885, 1307.00
1886, 1307.00
1887, 1307.00
1888, 1306.00
1889, 1306.00
1890, 1305.00
1891, 1307.00
1892, 1304.00
1893, 1305.00
1894, 1304.00
1895, 1305.00
1896, 1303.00
1897, 1303.00
1898, 1302.00
1899, 1304.00
1900, 1303.00
1901, 1303.00
1902, 1304.00
1903, 1303.00
1904, 1301.00
1905, 1304.00
1906, 1302.00
1907, 1303.00
1908, 1301.00
1909, 1302.00
1910, 1303.00
1911, 1303.00
1912, 1303.00
1913, 1302.00
1914, 1300.00
1915, 1302.00
1916, 1301.00
1917, 1302.00
1918, 1301.00
1919, 1301.00
1920, 1300.00
1921, 1300.00
1922, 1300.00
1923, 1301.00
1924, 1301.00
1925, 1301.00
1926, 1299.00
1927, 1299.00
1928, 1300.00
1929, 1302.00
1930, 1301.00
1931, 1299.00
1932, 1300.00
1933, 1301.00
1934, 1300.00
1935, 1302.00
1936, 1299.00
1937, 1302.00
1938, 1301.00
1939, 1301.00
1940, 1300.00
1941, 1302.00
1942, 1301.00
1943, 1302.00
1944, 1302.00
1945, 1301.00
1946, 1302.00
1947, 1303.00
1948, 1301.00
1949, 1303.00
1950, 1302.00
1951, 1302.00
1952, 1302.00
1953, 1303.00
1954, 1303.00
1955, 1303.00
1956, 1303.00
1957, 1303.00
1958, 1306.00
1959, 1304.00
1960, 1304.00
1961, 1304.00
1962, 1305.00
1963, 1305.00
1964, 1306.00
1965, 1305.00
1966, 1306.00
1967, 1305.00
1968, 1305.00
1969, 1307.00
1970, 1308.00
1971, 1307.00
1972, 1308.00
1973, 1307.00
1974, 1307.00
1975, 1309.00
1976, 1309.00
1977, 1311.00
1978, 1309.00
1979, 1309.00
1980, 1309.00
1981, 1309.00
1982, 1311.00
1983, 1310.00
1984, 1310.00
1985, 1312.00
1986, 1311.00
1987, 1314.00
1988, 1310.00
1989, 1312.00
1990, 1312.00
1991, 1313.00
1992, 1312.00
1993, 1314.00
1994, 1313.00
1995, 1314.00
1996, 1314.00
1997, 1314.00
1998, 1316.00
1999, 1316.00
2000, 1317.00
2001, 1315.00
2002, 1316.00
2003, 1315.00
2004, 1318.00
2005, 1317.00
2006, 1318.00
2007, 1318.00
2008, 1319.00
2009, 1318.00
2010, 1319.00
2011, 1320.00
2012, 1319.00
2013, 1319.00
2014, 1320.00
2015, 1321.00
2016, 1321.00
2017, 1321.00
2018, 1322.00
2019, 1322.00
2020, 1322.00
2021, 1322.00
2022, 1323.00
2023, 1322.00
2024, 1323.00
2025, 1323.00
2026, 1324.00
2027, 1324.00
2028, 1327.00
2029, 1324.00
2030, 1325.00
2031, 1325.00
2032, 1325.00
2033, 1327.00
2034, 1327.00
2035, 1327.00
2036, 1326.00
2037, 1327.00
2038, 1328.00
2039, 1328.00
2040, 1329.00
2041, 1328.00
2042, 1331.00
2043, 1330.00
2044, 1332.00
2045, 1330.00
2046, 1332.00
2047, 1333.00
2048, 1333.00
2049, 1335.00
2050, 1332.00
2051, 1333.00
2052, 1335.00
2053, 1335.00
2054, 1336.00
2055, 1335.00
2056, 1335.00
2057, 1337.00
2058, 1338.00
2059, 1339.00
2060, 1339.00
2061, 1337.00
2062, 1337.00
2063, 1340.00
2064, 1340.00
2065, 1340.00
2066, 1341.00
2067, 1342.00
2068, 1342.00
2069, 1342.00
2070, 1343.00
2071, 1343.00
2072, 1344.00
2073, 1344.00
2074, 1343.00
2075, 1347.00
2076, 1345.00
2077, 1347.00
2078, 1347.00
2079, 1346.00
2080, 1349.00
2081, 1348.00
2082, 1348.00
2083, 1349.00
2084, 1351.00
2085, 1349.00
2086, 1351.00
2087, 1350.00
2088, 1351.00
2089, 1351.00
2090, 1352.00
2091, 1353.00
2092, 1352.00
2093, 1352.00
2094, 1352.00
2095, 1355.00
2096, 1353.00
2097, 1354.00
2098, 1351.00
2099, 1354.00
2100, 1356.00
2101, 1354.00
2102, 1354.00
2103, 1356.00
2104, 1356.00
2105, 1356.00
2106, 1356.00
2107, 1356.00
2108, 1357.00
2109, 1357.00
2110, 1358.00
2111, 1359.00
2112, 1358.00
2113, 1357.00
2114, 1359.00
2115, 1357.00
2116, 1360.00
2117, 1360.00
2118, 1360.00
2119, 1361.00
2120, 1360.00
2121, 1360.00
2122, 1360.00
2123, 1360.00
2124, 1359.00
2125, 1360.00
2126, 1359.00
2127, 1361.00
2128, 1362.00
2129, 1362.00
2130, 1362.00
2131, 1361.00
2132, 1361.00
2133, 1362.00
2134, 1362.00
2135, 1363.00
2136, 1363.00
2137, 1362.00
2138, 1365.00
2139, 1364.00
2140, 1363.00
2141, 1363.00
2142, 1364.00
2143, 1364.00
2144, 1364.00
2145, 1364.00
2146, 1364.00
2147, 1366.00
2148, 1363.00
2149, 1362.00
2150, 1364.00
