FW version: 24
Log Version: 3.0.3

General Info:
       Command/Macro Performed,            Timestamp,             Device ID, COM Port, UART/I2C, Test Name, Host Major, Host Minor, Host Revision, Host Git Commit
            Single_measurement,  2023_06_27_12_36_38,       Insight2_F4_xxx,    USB-C,      USB,          ,          0,          1,             1,      4031237645

Show Spectrometer Status:
l0_version, f4_version, battery_perc, battery_mVolt, accelerometer_temp, accelerometer_x, accelerometer_y, accelerometer_z, compass_temp, compass_x, compass_y, compass_z, lamp_0, lamp_1, gain_0, gain_1
        17,         24,           95,          2078,               5616,             756,           65168,           18472,            0,     65527,     65498,     65387,   3276,   3276,    0,    0

Temperature Statistic Info:
NTC AVG [°C], NTC2 AVG [°C]
      37.208,        36.891

Statistic Info:
M1:  num,      min,      max,   median,      AVG,      STD,M2:  num,      min,      max,   median,      AVG,      STD
     301,   597.00,   672.00,   615.00,   622.23,  22.9956,     401,   817.00,   863.00,   841.00,   839.96,  15.6144,

Measurements:
Wavelength, Data Amplitude
1350, 607.00
1351, 607.00
1352, 607.00
1353, 607.00
1354, 607.00
1355, 607.00
1356, 607.00
1357, 606.00
1358, 606.00
1359, 606.00
1360, 606.00
1361, 605.00
1362, 605.00
1363, 605.00
1364, 604.00
1365, 605.00
1366, 604.00
1367, 604.00
1368, 604.00
1369, 603.00
1370, 603.00
1371, 603.00
1372, 603.00
1373, 603.00
1374, 602.00
1375, 602.00
1376, 601.00
1377, 601.00
1378, 601.00
1379, 601.00
1380, 601.00
1381, 600.00
1382, 601.00
1383, 600.00
1384, 600.00
1385, 600.00
1386, 599.00
1387, 600.00
1388, 599.00
1389, 599.00
1390, 599.00
1391, 599.00
1392, 599.00
1393, 599.00
1394, 599.00
1395, 599.00
1396, 599.00
1397, 599.00
1398, 599.00
1399, 598.00
1400, 599.00
1401, 598.00
1402, 598.00
1403, 598.00
1404, 599.00
1405, 598.00
1406, 598.00
1407, 598.00
1408, 598.00
1409, 598.00
1410, 598.00
1411, 598.00
1412, 597.00
1413, 598.00
1414, 598.00
1415, 598.00
1416, 598.00
1417, 599.00
1418, 598.00
1419, 598.00
1420, 598.00
1421, 598.00
1422, 598.00
1423, 598.00
1424, 598.00
1425, 598.00
1426, 598.00
1427, 598.00
1428, 598.00
1429, 599.00
1430, 599.00
1431, 599.00
1432, 599.00
1433, 599.00
1434, 598.00
1435, 599.00
1436, 599.00
1437, 599.00
1438, 600.00
1439, 600.00
1440, 600.00
1441, 600.00
1442, 600.00
1443, 600.00
1444, 600.00
1445, 601.00
1446, 600.00
1447, 601.00
1448, 601.00
1449, 600.00
1450, 601.00
1451, 601.00
1452, 602.00
1453, 602.00
1454, 602.00
1455, 602.00
1456, 603.00
1457, 602.00
1458, 603.00
1459, 603.00
1460, 603.00
1461, 604.00
1462, 604.00
1463, 604.00
1464, 604.00
1465, 604.00
1466, 604.00
1467, 604.00
1468, 605.00
1469, 605.00
1470, 606.00
1471, 606.00
1472, 605.00
1473, 607.00
1474, 607.00
1475, 607.00
1476, 607.00
1477, 608.00
1478, 607.00
1479, 608.00
1480, 608.00
1481, 609.00
1482, 609.00
1483, 610.00
1484, 609.00
1485, 610.00
1486, 610.00
1487, 610.00
1488, 611.00
1489, 611.00
1490, 611.00
1491, 611.00
1492, 612.00
1493, 612.00
1494, 612.00
1495, 613.00
1496, 613.00
1497, 614.00
1498, 614.00
1499, 614.00
1500, 615.00
1501, 615.00
1502, 615.00
1503, 616.00
1504, 616.00
1505, 616.00
1506, 616.00
1507, 617.00
1508, 617.00
1509, 617.00
1510, 617.00
1511, 618.00
1512, 618.00
1513, 619.00
1514, 619.00
1515, 619.00
1516, 620.00
1517, 620.00
1518, 621.00
1519, 621.00
1520, 621.00
1521, 621.00
1522, 622.00
1523, 622.00
1524, 623.00
1525, 623.00
1526, 623.00
1527, 623.00
1528, 624.00
1529, 624.00
1530, 625.00
1531, 625.00
1532, 625.00
1533, 625.00
1534, 626.00
1535, 626.00
1536, 627.00
1537, 627.00
1538, 627.00
1539, 628.00
1540, 628.00
1541, 628.00
1542, 629.00
1543, 629.00
1544, 629.00
1545, 629.00
1546, 630.00
1547, 630.00
1548, 631.00
1549, 631.00
1550, 631.00
1551, 632.00
1552, 633.00
1553, 632.00
1554, 633.00
1555, 633.00
1556, 634.00
1557, 634.00
1558, 634.00
1559, 635.00
1560, 636.00
1561, 635.00
1562, 636.00
1563, 637.00
1564, 637.00
1565, 637.00
1566, 638.00
1567, 638.00
1568, 638.00
1569, 639.00
1570, 640.00
1571, 639.00
1572, 640.00
1573, 640.00
1574, 641.00
1575, 641.00
1576, 642.00
1577, 642.00
1578, 642.00
1579, 642.00
1580, 643.00
1581, 643.00
1582, 644.00
1583, 644.00
1584, 644.00
1585, 645.00
1586, 645.00
1587, 645.00
1588, 646.00
1589, 646.00
1590, 647.00
1591, 647.00
1592, 647.00
1593, 647.00
1594, 648.00
1595, 648.00
1596, 649.00
1597, 649.00
1598, 649.00
1599, 650.00
1600, 650.00
1601, 650.00
1602, 651.00
1603, 652.00
1604, 652.00
1605, 652.00
1606, 652.00
1607, 653.00
1608, 653.00
1609, 654.00
1610, 655.00
1611, 655.00
1612, 655.00
1613, 656.00
1614, 656.00
1615, 656.00
1616, 657.00
1617, 657.00
1618, 658.00
1619, 659.00
1620, 659.00
1621, 659.00
1622, 659.00
1623, 660.00
1624, 661.00
1625, 661.00
1626, 662.00
1627, 662.00
1628, 663.00
1629, 663.00
1630, 664.00
1631, 664.00
1632, 665.00
1633, 665.00
1634, 665.00
1635, 666.00
1636, 666.00
1637, 667.00
1638, 667.00
1639, 667.00
1640, 667.00
1641, 668.00
1642, 668.00
1643, 669.00
1644, 669.00
1645, 669.00
1646, 670.00
1647, 670.00
1648, 671.00
1649, 671.00
1650, 672.00

1750, 863.00
1751, 862.00
1752, 862.00
1753, 862.00
1754, 862.00
1755, 862.00
1756, 862.00
1757, 862.00
1758, 862.00
1759, 862.00
1760, 862.00
1761, 862.00
1762, 862.00
1763, 862.00
1764, 862.00
1765, 862.00
1766, 862.00
1767, 861.00
1768, 861.00
1769, 861.00
1770, 861.00
1771, 862.00
1772, 862.00
1773, 861.00
1774, 861.00
1775, 861.00
1776, 861.00
1777, 861.00
1778, 861.00
1779, 860.00
1780, 860.00
1781, 860.00
1782, 860.00
1783, 859.00
1784, 860.00
1785, 860.00
1786, 859.00
1787, 859.00
1788, 859.00
1789, 858.00
1790, 859.00
1791, 858.00
1792, 859.00
1793, 857.00
1794, 858.00
1795, 857.00
1796, 857.00
1797, 857.00
1798, 857.00
1799, 857.00
1800, 857.00
1801, 857.00
1802, 858.00
1803, 857.00
1804, 857.00
1805, 856.00
1806, 856.00
1807, 857.00
1808, 857.00
1809, 856.00
1810, 856.00
1811, 856.00
1812, 856.00
1813, 856.00
1814, 855.00
1815, 855.00
1816, 855.00
1817, 855.00
1818, 855.00
1819, 855.00
1820, 855.00
1821, 854.00
1822, 854.00
1823, 854.00
1824, 854.00
1825, 854.00
1826, 853.00
1827, 853.00
1828, 853.00
1829, 853.00
1830, 852.00
1831, 852.00
1832, 851.00
1833, 851.00
1834, 851.00
1835, 850.00
1836, 849.00
1837, 849.00
1838, 849.00
1839, 848.00
1840, 848.00
1841, 847.00
1842, 847.00
1843, 846.00
1844, 845.00
1845, 845.00
1846, 844.00
1847, 843.00
1848, 842.00
1849, 842.00
1850, 841.00
1851, 840.00
1852, 840.00
1853, 839.00
1854, 838.00
1855, 837.00
1856, 837.00
1857, 836.00
1858, 834.00
1859, 834.00
1860, 834.00
1861, 832.00
1862, 832.00
1863, 832.00
1864, 830.00
1865, 830.00
1866, 829.00
1867, 828.00
1868, 829.00
1869, 827.00
1870, 827.00
1871, 827.00
1872, 826.00
1873, 825.00
1874, 825.00
1875, 824.00
1876, 824.00
1877, 824.00
1878, 823.00
1879, 823.00
1880, 823.00
1881, 822.00
1882, 822.00
1883, 822.00
1884, 821.00
1885, 821.00
1886, 821.00
1887, 821.00
1888, 820.00
1889, 821.00
1890, 820.00
1891, 819.00
1892, 820.00
1893, 820.00
1894, 819.00
1895, 820.00
1896, 819.00
1897, 819.00
1898, 819.00
1899, 819.00
1900, 819.00
1901, 818.00
1902, 818.00
1903, 818.00
1904, 818.00
1905, 818.00
1906, 818.00
1907, 818.00
1908, 817.00
1909, 818.00
1910, 818.00
1911, 818.00
1912, 818.00
1913, 817.00
1914, 818.00
1915, 817.00
1916, 817.00
1917, 817.00
1918, 818.00
1919, 817.00
1920, 818.00
1921, 817.00
1922, 817.00
1923, 817.00
1924, 817.00
1925, 817.00
1926, 818.00
1927, 817.00
1928, 818.00
1929, 818.00
1930, 818.00
1931, 817.00
1932, 818.00
1933, 818.00
1934, 818.00
1935, 818.00
1936, 818.00
1937, 818.00
1938, 817.00
1939, 818.00
1940, 818.00
1941, 818.00
1942, 818.00
1943, 818.00
1944, 818.00
1945, 819.00
1946, 819.00
1947, 819.00
1948, 819.00
1949, 820.00
1950, 820.00
1951, 820.00
1952, 820.00
1953, 820.00
1954, 819.00
1955, 820.00
1956, 820.00
1957, 820.00
1958, 820.00
1959, 820.00
1960, 821.00
1961, 821.00
1962, 821.00
1963, 822.00
1964, 822.00
1965, 821.00
1966, 822.00
1967, 822.00
1968, 822.00
1969, 823.00
1970, 822.00
1971, 823.00
1972, 823.00
1973, 823.00
1974, 823.00
1975, 823.00
1976, 824.00
1977, 824.00
1978, 825.00
1979, 825.00
1980, 825.00
1981, 825.00
1982, 825.00
1983, 825.00
1984, 826.00
1985, 826.00
1986, 827.00
1987, 827.00
1988, 827.00
1989, 827.00
1990, 827.00
1991, 827.00
1992, 828.00
1993, 828.00
1994, 828.00
1995, 828.00
1996, 829.00
1997, 829.00
1998, 829.00
1999, 829.00
2000, 830.00
2001, 829.00
2002, 830.00
2003, 830.00
2004, 830.00
2005, 830.00
2006, 831.00
2007, 832.00
2008, 831.00
2009, 831.00
2010, 831.00
2011, 832.00
2012, 831.00
2013, 832.00
2014, 833.00
2015, 832.00
2016, 832.00
2017, 833.00
2018, 833.00
2019, 833.00
2020, 833.00
2021, 833.00
2022, 834.00
2023, 834.00
2024, 834.00
2025, 834.00
2026, 834.00
2027, 835.00
2028, 835.00
2029, 835.00
2030, 836.00
2031, 836.00
2032, 836.00
2033, 836.00
2034, 837.00
2035, 837.00
2036, 838.00
2037, 837.00
2038, 837.00
2039, 838.00
2040, 838.00
2041, 838.00
2042, 838.00
2043, 839.00
2044, 839.00
2045, 840.00
2046, 839.00
2047, 840.00
2048, 840.00
2049, 841.00
2050, 840.00
2051, 841.00
2052, 841.00
2053, 842.00
2054, 842.00
2055, 842.00
2056, 842.00
2057, 843.00
2058, 843.00
2059, 843.00
2060, 844.00
2061, 845.00
2062, 845.00
2063, 845.00
2064, 845.00
2065, 846.00
2066, 845.00
2067, 846.00
2068, 847.00
2069, 846.00
2070, 846.00
2071, 847.00
2072, 847.00
2073, 848.00
2074, 848.00
2075, 849.00
2076, 849.00
2077, 849.00
2078, 849.00
2079, 849.00
2080, 850.00
2081, 850.00
2082, 850.00
2083, 850.00
2084, 851.00
2085, 851.00
2086, 851.00
2087, 851.00
2088, 852.00
2089, 852.00
2090, 851.00
2091, 852.00
2092, 853.00
2093, 852.00
2094, 853.00
2095, 852.00
2096, 853.00
2097, 853.00
2098, 853.00
2099, 853.00
2100, 853.00
2101, 854.00
2102, 854.00
2103, 854.00
2104, 854.00
2105, 854.00
2106, 854.00
2107, 854.00
2108, 854.00
2109, 856.00
2110, 854.00
2111, 855.00
2112, 855.00
2113, 855.00
2114, 855.00
2115, 855.00
2116, 856.00
2117, 855.00
2118, 855.00
2119, 856.00
2120, 855.00
2121, 856.00
2122, 857.00
2123, 856.00
2124, 856.00
2125, 856.00
2126, 856.00
2127, 856.00
2128, 857.00
2129, 857.00
2130, 857.00
2131, 857.00
2132, 858.00
2133, 856.00
2134, 857.00
2135, 858.00
2136, 857.00
2137, 857.00
2138, 857.00
2139, 857.00
2140, 857.00
2141, 858.00
2142, 858.00
2143, 857.00
2144, 858.00
2145, 858.00
2146, 857.00
2147, 857.00
2148, 858.00
2149, 858.00
2150, 858.00
