FW version: 24
Log Version: 3.0.3

General Info:
       Command/Macro Performed,            Timestamp,             Device ID, COM Port, UART/I2C, Test Name, Host Major, Host Minor, Host Revision, Host Git Commit
            Single_measurement,  2023_06_29_10_54_56,       Insight2_F4_xxx,    USB-C,      USB,          ,          0,          1,             1,      4031237645

Show Spectrometer Status:
l0_version, f4_version, battery_perc, battery_mVolt, accelerometer_temp, accelerometer_x, accelerometer_y, accelerometer_z, compass_temp, compass_x, compass_y, compass_z, lamp_0, lamp_1, gain_0, gain_1
        17,         24,           93,          2065,               5968,           65452,             204,           18424,            0,     65453,     65535,     65534,   3276,   3276,      1,      1

Temperature Statistic Info:
NTC AVG [°C], NTC2 AVG [°C]
      38.275,        37.925

Statistic Info:
M1:  num,      min,      max,   median,      AVG,      STD,M2:  num,      min,      max,   median,      AVG,      STD
     301,  2014.00,  2319.00,  2076.00,  2114.56,  94.9140,     401,  2594.00,  2783.00,  2669.00,  2675.52,  61.1435,

Measurements:
Wavelength, Data Amplitude
1350, 2073.00
1351, 2072.00
1352, 2071.00
1353, 2071.00
1354, 2069.00
1355, 2069.00
1356, 2067.00
1357, 2067.00
1358, 2066.00
1359, 2064.00
1360, 2061.00
1361, 2060.00
1362, 2059.00
1363, 2058.00
1364, 2057.00
1365, 2054.00
1366, 2053.00
1367, 2052.00
1368, 2050.00
1369, 2047.00
1370, 2047.00
1371, 2045.00
1372, 2043.00
1373, 2043.00
1374, 2041.00
1375, 2039.00
1376, 2037.00
1377, 2037.00
1378, 2035.00
1379, 2033.00
1380, 2033.00
1381, 2032.00
1382, 2030.00
1383, 2031.00
1384, 2029.00
1385, 2027.00
1386, 2027.00
1387, 2025.00
1388, 2026.00
1389, 2024.00
1390, 2024.00
1391, 2022.00
1392, 2022.00
1393, 2022.00
1394, 2021.00
1395, 2021.00
1396, 2022.00
1397, 2021.00
1398, 2019.00
1399, 2018.00
1400, 2019.00
1401, 2018.00
1402, 2018.00
1403, 2018.00
1404, 2017.00
1405, 2017.00
1406, 2017.00
1407, 2017.00
1408, 2017.00
1409, 2016.00
1410, 2017.00
1411, 2015.00
1412, 2015.00
1413, 2015.00
1414, 2015.00
1415, 2015.00
1416, 2015.00
1417, 2015.00
1418, 2015.00
1419, 2014.00
1420, 2014.00
1421, 2014.00
1422, 2015.00
1423, 2015.00
1424, 2015.00
1425, 2016.00
1426, 2015.00
1427, 2015.00
1428, 2015.00
1429, 2015.00
1430, 2015.00
1431, 2017.00
1432, 2017.00
1433, 2016.00
1434, 2017.00
1435, 2017.00
1436, 2018.00
1437, 2018.00
1438, 2018.00
1439, 2018.00
1440, 2019.00
1441, 2020.00
1442, 2020.00
1443, 2021.00
1444, 2021.00
1445, 2022.00
1446, 2022.00
1447, 2021.00
1448, 2023.00
1449, 2024.00
1450, 2025.00
1451, 2026.00
1452, 2025.00
1453, 2026.00
1454, 2027.00
1455, 2027.00
1456, 2028.00
1457, 2029.00
1458, 2030.00
1459, 2030.00
1460, 2031.00
1461, 2033.00
1462, 2034.00
1463, 2034.00
1464, 2035.00
1465, 2035.00
1466, 2037.00
1467, 2037.00
1468, 2037.00
1469, 2039.00
1470, 2041.00
1471, 2041.00
1472, 2042.00
1473, 2043.00
1474, 2045.00
1475, 2046.00
1476, 2048.00
1477, 2049.00
1478, 2049.00
1479, 2050.00
1480, 2052.00
1481, 2053.00
1482, 2054.00
1483, 2055.00
1484, 2056.00
1485, 2057.00
1486, 2059.00
1487, 2060.00
1488, 2060.00
1489, 2062.00
1490, 2065.00
1491, 2065.00
1492, 2066.00
1493, 2068.00
1494, 2069.00
1495, 2070.00
1496, 2071.00
1497, 2072.00
1498, 2074.00
1499, 2074.00
1500, 2076.00
1501, 2076.00
1502, 2079.00
1503, 2080.00
1504, 2082.00
1505, 2082.00
1506, 2083.00
1507, 2085.00
1508, 2087.00
1509, 2087.00
1510, 2089.00
1511, 2090.00
1512, 2091.00
1513, 2093.00
1514, 2095.00
1515, 2096.00
1516, 2097.00
1517, 2099.00
1518, 2099.00
1519, 2102.00
1520, 2103.00
1521, 2104.00
1522, 2107.00
1523, 2108.00
1524, 2109.00
1525, 2110.00
1526, 2112.00
1527, 2113.00
1528, 2115.00
1529, 2117.00
1530, 2118.00
1531, 2120.00
1532, 2121.00
1533, 2123.00
1534, 2124.00
1535, 2126.00
1536, 2128.00
1537, 2130.00
1538, 2131.00
1539, 2132.00
1540, 2132.00
1541, 2135.00
1542, 2136.00
1543, 2139.00
1544, 2140.00
1545, 2142.00
1546, 2143.00
1547, 2145.00
1548, 2146.00
1549, 2147.00
1550, 2150.00
1551, 2151.00
1552, 2152.00
1553, 2155.00
1554, 2157.00
1555, 2157.00
1556, 2158.00
1557, 2161.00
1558, 2163.00
1559, 2165.00
1560, 2166.00
1561, 2166.00
1562, 2170.00
1563, 2172.00
1564, 2173.00
1565, 2174.00
1566, 2177.00
1567, 2178.00
1568, 2180.00
1569, 2183.00
1570, 2183.00
1571, 2186.00
1572, 2187.00
1573, 2190.00
1574, 2189.00
1575, 2192.00
1576, 2194.00
1577, 2196.00
1578, 2197.00
1579, 2199.00
1580, 2200.00
1581, 2203.00
1582, 2203.00
1583, 2205.00
1584, 2207.00
1585, 2208.00
1586, 2209.00
1587, 2210.00
1588, 2213.00
1589, 2215.00
1590, 2216.00
1591, 2218.00
1592, 2220.00
1593, 2220.00
1594, 2222.00
1595, 2224.00
1596, 2225.00
1597, 2227.00
1598, 2227.00
1599, 2230.00
1600, 2232.00
1601, 2234.00
1602, 2235.00
1603, 2236.00
1604, 2238.00
1605, 2240.00
1606, 2242.00
1607, 2243.00
1608, 2245.00
1609, 2247.00
1610, 2248.00
1611, 2251.00
1612, 2252.00
1613, 2255.00
1614, 2256.00
1615, 2259.00
1616, 2260.00
1617, 2262.00
1618, 2264.00
1619, 2266.00
1620, 2268.00
1621, 2271.00
1622, 2271.00
1623, 2274.00
1624, 2275.00
1625, 2277.00
1626, 2279.00
1627, 2282.00
1628, 2284.00
1629, 2285.00
1630, 2286.00
1631, 2288.00
1632, 2290.00
1633, 2292.00
1634, 2294.00
1635, 2295.00
1636, 2297.00
1637, 2299.00
1638, 2300.00
1639, 2303.00
1640, 2304.00
1641, 2305.00
1642, 2307.00
1643, 2309.00
1644, 2309.00
1645, 2312.00
1646, 2313.00
1647, 2315.00
1648, 2316.00
1649, 2317.00
1650, 2319.00

1750, 2781.00
1751, 2781.00
1752, 2780.00
1753, 2782.00
1754, 2781.00
1755, 2781.00
1756, 2783.00
1757, 2780.00
1758, 2782.00
1759, 2781.00
1760, 2780.00
1761, 2780.00
1762, 2781.00
1763, 2782.00
1764, 2781.00
1765, 2778.00
1766, 2777.00
1767, 2780.00
1768, 2777.00
1769, 2778.00
1770, 2779.00
1771, 2777.00
1772, 2777.00
1773, 2776.00
1774, 2774.00
1775, 2776.00
1776, 2777.00
1777, 2775.00
1778, 2774.00
1779, 2772.00
1780, 2773.00
1781, 2770.00
1782, 2771.00
1783, 2770.00
1784, 2771.00
1785, 2770.00
1786, 2768.00
1787, 2767.00
1788, 2769.00
1789, 2767.00
1790, 2766.00
1791, 2766.00
1792, 2766.00
1793, 2766.00
1794, 2763.00
1795, 2763.00
1796, 2761.00
1797, 2762.00
1798, 2761.00
1799, 2762.00
1800, 2761.00
1801, 2759.00
1802, 2760.00
1803, 2760.00
1804, 2758.00
1805, 2758.00
1806, 2758.00
1807, 2756.00
1808, 2756.00
1809, 2758.00
1810, 2755.00
1811, 2755.00
1812, 2753.00
1813, 2751.00
1814, 2750.00
1815, 2750.00
1816, 2748.00
1817, 2748.00
1818, 2747.00
1819, 2745.00
1820, 2745.00
1821, 2744.00
1822, 2743.00
1823, 2741.00
1824, 2740.00
1825, 2737.00
1826, 2739.00
1827, 2738.00
1828, 2735.00
1829, 2733.00
1830, 2730.00
1831, 2729.00
1832, 2725.00
1833, 2724.00
1834, 2723.00
1835, 2720.00
1836, 2719.00
1837, 2714.00
1838, 2713.00
1839, 2711.00
1840, 2709.00
1841, 2706.00
1842, 2703.00
1843, 2700.00
1844, 2698.00
1845, 2695.00
1846, 2690.00
1847, 2688.00
1848, 2685.00
1849, 2682.00
1850, 2679.00
1851, 2677.00
1852, 2675.00
1853, 2670.00
1854, 2668.00
1855, 2665.00
1856, 2663.00
1857, 2659.00
1858, 2656.00
1859, 2654.00
1860, 2652.00
1861, 2651.00
1862, 2648.00
1863, 2644.00
1864, 2643.00
1865, 2640.00
1866, 2639.00
1867, 2634.00
1868, 2635.00
1869, 2632.00
1870, 2630.00
1871, 2627.00
1872, 2627.00
1873, 2625.00
1874, 2624.00
1875, 2623.00
1876, 2621.00
1877, 2618.00
1878, 2618.00
1879, 2617.00
1880, 2617.00
1881, 2616.00
1882, 2614.00
1883, 2615.00
1884, 2612.00
1885, 2612.00
1886, 2610.00
1887, 2611.00
1888, 2610.00
1889, 2607.00
1890, 2608.00
1891, 2608.00
1892, 2607.00
1893, 2605.00
1894, 2606.00
1895, 2605.00
1896, 2605.00
1897, 2603.00
1898, 2602.00
1899, 2601.00
1900, 2603.00
1901, 2603.00
1902, 2602.00
1903, 2602.00
1904, 2602.00
1905, 2600.00
1906, 2600.00
1907, 2597.00
1908, 2601.00
1909, 2598.00
1910, 2597.00
1911, 2599.00
1912, 2597.00
1913, 2598.00
1914, 2597.00
1915, 2596.00
1916, 2597.00
1917, 2597.00
1918, 2596.00
1919, 2597.00
1920, 2597.00
1921, 2597.00
1922, 2597.00
1923, 2597.00
1924, 2597.00
1925, 2594.00
1926, 2597.00
1927, 2598.00
1928, 2595.00
1929, 2596.00
1930, 2596.00
1931, 2597.00
1932, 2598.00
1933, 2597.00
1934, 2596.00
1935, 2597.00
1936, 2596.00
1937, 2596.00
1938, 2597.00
1939, 2597.00
1940, 2599.00
1941, 2597.00
1942, 2597.00
1943, 2600.00
1944, 2598.00
1945, 2599.00
1946, 2599.00
1947, 2599.00
1948, 2600.00
1949, 2599.00
1950, 2601.00
1951, 2599.00
1952, 2601.00
1953, 2599.00
1954, 2599.00
1955, 2602.00
1956, 2601.00
1957, 2604.00
1958, 2604.00
1959, 2605.00
1960, 2605.00
1961, 2605.00
1962, 2605.00
1963, 2606.00
1964, 2608.00
1965, 2606.00
1966, 2607.00
1967, 2608.00
1968, 2607.00
1969, 2609.00
1970, 2608.00
1971, 2611.00
1972, 2610.00
1973, 2611.00
1974, 2613.00
1975, 2612.00
1976, 2612.00
1977, 2613.00
1978, 2615.00
1979, 2615.00
1980, 2615.00
1981, 2616.00
1982, 2615.00
1983, 2617.00
1984, 2618.00
1985, 2620.00
1986, 2619.00
1987, 2621.00
1988, 2621.00
1989, 2621.00
1990, 2623.00
1991, 2622.00
1992, 2621.00
1993, 2622.00
1994, 2625.00
1995, 2624.00
1996, 2627.00
1997, 2628.00
1998, 2625.00
1999, 2627.00
2000, 2628.00
2001, 2629.00
2002, 2630.00
2003, 2629.00
2004, 2631.00
2005, 2630.00
2006, 2631.00
2007, 2632.00
2008, 2633.00
2009, 2636.00
2010, 2634.00
2011, 2635.00
2012, 2635.00
2013, 2637.00
2014, 2636.00
2015, 2637.00
2016, 2637.00
2017, 2639.00
2018, 2641.00
2019, 2640.00
2020, 2642.00
2021, 2641.00
2022, 2643.00
2023, 2643.00
2024, 2643.00
2025, 2643.00
2026, 2645.00
2027, 2646.00
2028, 2649.00
2029, 2647.00
2030, 2649.00
2031, 2649.00
2032, 2649.00
2033, 2651.00
2034, 2653.00
2035, 2652.00
2036, 2652.00
2037, 2653.00
2038, 2655.00
2039, 2655.00
2040, 2655.00
2041, 2657.00
2042, 2657.00
2043, 2660.00
2044, 2659.00
2045, 2660.00
2046, 2663.00
2047, 2662.00
2048, 2663.00
2049, 2664.00
2050, 2664.00
2051, 2667.00
2052, 2668.00
2053, 2669.00
2054, 2669.00
2055, 2670.00
2056, 2672.00
2057, 2672.00
2058, 2674.00
2059, 2676.00
2060, 2676.00
2061, 2676.00
2062, 2679.00
2063, 2676.00
2064, 2680.00
2065, 2680.00
2066, 2682.00
2067, 2683.00
2068, 2685.00
2069, 2686.00
2070, 2686.00
2071, 2686.00
2072, 2688.00
2073, 2689.00
2074, 2689.00
2075, 2692.00
2076, 2690.00
2077, 2693.00
2078, 2692.00
2079, 2695.00
2080, 2694.00
2081, 2697.00
2082, 2696.00
2083, 2697.00
2084, 2698.00
2085, 2698.00
2086, 2700.00
2087, 2700.00
2088, 2701.00
2089, 2701.00
2090, 2703.00
2091, 2702.00
2092, 2705.00
2093, 2706.00
2094, 2705.00
2095, 2706.00
2096, 2708.00
2097, 2708.00
2098, 2709.00
2099, 2709.00
2100, 2712.00
2101, 2710.00
2102, 2710.00
2103, 2712.00
2104, 2712.00
2105, 2713.00
2106, 2715.00
2107, 2714.00
2108, 2714.00
2109, 2715.00
2110, 2716.00
2111, 2715.00
2112, 2717.00
2113, 2720.00
2114, 2719.00
2115, 2719.00
2116, 2718.00
2117, 2719.00
2118, 2720.00
2119, 2721.00
2120, 2720.00
2121, 2721.00
2122, 2721.00
2123, 2723.00
2124, 2721.00
2125, 2723.00
2126, 2724.00
2127, 2726.00
2128, 2724.00
2129, 2725.00
2130, 2725.00
2131, 2726.00
2132, 2726.00
2133, 2725.00
2134, 2729.00
2135, 2729.00
2136, 2727.00
2137, 2727.00
2138, 2727.00
2139, 2728.00
2140, 2728.00
2141, 2728.00
2142, 2731.00
2143, 2729.00
2144, 2730.00
2145, 2730.00
2146, 2731.00
2147, 2731.00
2148, 2732.00
2149, 2733.00
2150, 2730.00
