FW version: 24
Log Version: 3.0.3

General Info:
       Command/Macro Performed,            Timestamp,             Device ID, COM Port, UART/I2C, Test Name, Host Major, Host Minor, Host Revision, Host Git Commit
            Single_measurement,  2023_06_30_12_28_10,       Insight2_F4_xxx,    USB-C,      USB,          ,          0,          1,             1,      4031237645

Show Spectrometer Status:
l0_version, f4_version, battery_perc, battery_mVolt, accelerometer_temp, accelerometer_x, accelerometer_y, accelerometer_z, compass_temp, compass_x, compass_y, compass_z, lamp_0, lamp_1, gain_0, gain_1
        17,         24,           95,          2079,               5792,           65216,              60,           18548,            0,     65522,     65405,     65535,   2047,   2047,      1,      1

Temperature Statistic Info:
NTC AVG [°C], NTC2 AVG [°C]
      37.698,        37.439

Statistic Info:
M1:  num,      min,      max,   median,      AVG,      STD,M2:  num,      min,      max,   median,      AVG,      STD
     301,   834.00,   954.00,   863.00,   875.04,  38.2445,     401,  1292.00,  1369.00,  1335.00,  1333.23,  26.1763,

Measurements:
Wavelength, Data Amplitude
1350, 843.00
1351, 843.00
1352, 844.00
1353, 843.00
1354, 843.00
1355, 843.00
1356, 843.00
1357, 842.00
1358, 843.00
1359, 842.00
1360, 842.00
1361, 842.00
1362, 841.00
1363, 843.00
1364, 841.00
1365, 842.00
1366, 840.00
1367, 841.00
1368, 841.00
1369, 840.00
1370, 840.00
1371, 839.00
1372, 839.00
1373, 839.00
1374, 839.00
1375, 838.00
1376, 838.00
1377, 838.00
1378, 837.00
1379, 838.00
1380, 838.00
1381, 836.00
1382, 836.00
1383, 837.00
1384, 836.00
1385, 835.00
1386, 836.00
1387, 836.00
1388, 835.00
1389, 835.00
1390, 834.00
1391, 835.00
1392, 836.00
1393, 835.00
1394, 835.00
1395, 835.00
1396, 834.00
1397, 835.00
1398, 835.00
1399, 835.00
1400, 835.00
1401, 835.00
1402, 835.00
1403, 834.00
1404, 835.00
1405, 836.00
1406, 834.00
1407, 835.00
1408, 835.00
1409, 835.00
1410, 834.00
1411, 835.00
1412, 835.00
1413, 835.00
1414, 835.00
1415, 834.00
1416, 834.00
1417, 836.00
1418, 834.00
1419, 835.00
1420, 835.00
1421, 835.00
1422, 835.00
1423, 836.00
1424, 835.00
1425, 835.00
1426, 835.00
1427, 837.00
1428, 836.00
1429, 836.00
1430, 837.00
1431, 836.00
1432, 836.00
1433, 836.00
1434, 836.00
1435, 837.00
1436, 839.00
1437, 838.00
1438, 838.00
1439, 838.00
1440, 838.00
1441, 838.00
1442, 840.00
1443, 839.00
1444, 841.00
1445, 840.00
1446, 840.00
1447, 841.00
1448, 841.00
1449, 841.00
1450, 842.00
1451, 841.00
1452, 843.00
1453, 843.00
1454, 843.00
1455, 843.00
1456, 843.00
1457, 844.00
1458, 845.00
1459, 845.00
1460, 845.00
1461, 846.00
1462, 845.00
1463, 846.00
1464, 845.00
1465, 847.00
1466, 847.00
1467, 847.00
1468, 848.00
1469, 848.00
1470, 848.00
1471, 849.00
1472, 850.00
1473, 851.00
1474, 850.00
1475, 852.00
1476, 851.00
1477, 852.00
1478, 853.00
1479, 852.00
1480, 853.00
1481, 853.00
1482, 854.00
1483, 855.00
1484, 855.00
1485, 855.00
1486, 857.00
1487, 858.00
1488, 857.00
1489, 858.00
1490, 858.00
1491, 858.00
1492, 859.00
1493, 861.00
1494, 861.00
1495, 861.00
1496, 861.00
1497, 862.00
1498, 863.00
1499, 863.00
1500, 863.00
1501, 864.00
1502, 865.00
1503, 866.00
1504, 866.00
1505, 866.00
1506, 867.00
1507, 868.00
1508, 868.00
1509, 868.00
1510, 870.00
1511, 870.00
1512, 871.00
1513, 871.00
1514, 871.00
1515, 872.00
1516, 873.00
1517, 873.00
1518, 874.00
1519, 874.00
1520, 876.00
1521, 876.00
1522, 876.00
1523, 876.00
1524, 878.00
1525, 878.00
1526, 879.00
1527, 879.00
1528, 880.00
1529, 879.00
1530, 881.00
1531, 881.00
1532, 882.00
1533, 882.00
1534, 883.00
1535, 883.00
1536, 883.00
1537, 885.00
1538, 886.00
1539, 885.00
1540, 886.00
1541, 887.00
1542, 887.00
1543, 889.00
1544, 889.00
1545, 889.00
1546, 890.00
1547, 891.00
1548, 890.00
1549, 891.00
1550, 892.00
1551, 893.00
1552, 893.00
1553, 893.00
1554, 895.00
1555, 894.00
1556, 896.00
1557, 896.00
1558, 896.00
1559, 897.00
1560, 897.00
1561, 898.00
1562, 899.00
1563, 900.00
1564, 900.00
1565, 900.00
1566, 901.00
1567, 902.00
1568, 902.00
1569, 904.00
1570, 904.00
1571, 904.00
1572, 905.00
1573, 906.00
1574, 907.00
1575, 906.00
1576, 907.00
1577, 908.00
1578, 908.00
1579, 909.00
1580, 910.00
1581, 911.00
1582, 911.00
1583, 911.00
1584, 912.00
1585, 913.00
1586, 914.00
1587, 913.00
1588, 915.00
1589, 915.00
1590, 915.00
1591, 916.00
1592, 916.00
1593, 918.00
1594, 918.00
1595, 919.00
1596, 919.00
1597, 920.00
1598, 921.00
1599, 921.00
1600, 923.00
1601, 923.00
1602, 922.00
1603, 923.00
1604, 924.00
1605, 925.00
1606, 926.00
1607, 926.00
1608, 926.00
1609, 928.00
1610, 927.00
1611, 929.00
1612, 929.00
1613, 930.00
1614, 931.00
1615, 932.00
1616, 933.00
1617, 934.00
1618, 934.00
1619, 934.00
1620, 935.00
1621, 936.00
1622, 937.00
1623, 937.00
1624, 938.00
1625, 940.00
1626, 941.00
1627, 940.00
1628, 941.00
1629, 942.00
1630, 944.00
1631, 945.00
1632, 943.00
1633, 945.00
1634, 945.00
1635, 947.00
1636, 947.00
1637, 947.00
1638, 948.00
1639, 948.00
1640, 948.00
1641, 949.00
1642, 949.00
1643, 950.00
1644, 951.00
1645, 951.00
1646, 952.00
1647, 952.00
1648, 953.00
1649, 953.00
1650, 954.00

1750, 1366.00
1751, 1365.00
1752, 1365.00
1753, 1364.00
1754, 1365.00
1755, 1365.00
1756, 1365.00
1757, 1364.00
1758, 1366.00
1759, 1365.00
1760, 1366.00
1761, 1363.00
1762, 1366.00
1763, 1366.00
1764, 1364.00
1765, 1366.00
1766, 1365.00
1767, 1365.00
1768, 1365.00
1769, 1365.00
1770, 1364.00
1771, 1365.00
1772, 1364.00
1773, 1366.00
1774, 1362.00
1775, 1364.00
1776, 1363.00
1777, 1365.00
1778, 1363.00
1779, 1362.00
1780, 1363.00
1781, 1362.00
1782, 1362.00
1783, 1362.00
1784, 1362.00
1785, 1360.00
1786, 1360.00
1787, 1361.00
1788, 1361.00
1789, 1361.00
1790, 1361.00
1791, 1361.00
1792, 1359.00
1793, 1358.00
1794, 1358.00
1795, 1359.00
1796, 1358.00
1797, 1360.00
1798, 1357.00
1799, 1358.00
1800, 1357.00
1801, 1357.00
1802, 1359.00
1803, 1357.00
1804, 1357.00
1805, 1358.00
1806, 1356.00
1807, 1357.00
1808, 1356.00
1809, 1356.00
1810, 1357.00
1811, 1356.00
1812, 1358.00
1813, 1357.00
1814, 1355.00
1815, 1357.00
1816, 1356.00
1817, 1356.00
1818, 1356.00
1819, 1354.00
1820, 1355.00
1821, 1354.00
1822, 1353.00
1823, 1354.00
1824, 1353.00
1825, 1354.00
1826, 1353.00
1827, 1353.00
1828, 1351.00
1829, 1350.00
1830, 1349.00
1831, 1350.00
1832, 1350.00
1833, 1350.00
1834, 1347.00
1835, 1349.00
1836, 1348.00
1837, 1347.00
1838, 1346.00
1839, 1344.00
1840, 1344.00
1841, 1343.00
1842, 1342.00
1843, 1340.00
1844, 1340.00
1845, 1339.00
1846, 1337.00
1847, 1337.00
1848, 1335.00
1849, 1335.00
1850, 1333.00
1851, 1332.00
1852, 1330.00
1853, 1328.00
1854, 1328.00
1855, 1327.00
1856, 1325.00
1857, 1325.00
1858, 1322.00
1859, 1322.00
1860, 1320.00
1861, 1319.00
1862, 1318.00
1863, 1317.00
1864, 1315.00
1865, 1314.00
1866, 1314.00
1867, 1312.00
1868, 1313.00
1869, 1311.00
1870, 1310.00
1871, 1310.00
1872, 1306.00
1873, 1307.00
1874, 1308.00
1875, 1307.00
1876, 1304.00
1877, 1304.00
1878, 1304.00
1879, 1304.00
1880, 1303.00
1881, 1303.00
1882, 1301.00
1883, 1303.00
1884, 1300.00
1885, 1300.00
1886, 1300.00
1887, 1301.00
1888, 1300.00
1889, 1300.00
1890, 1300.00
1891, 1299.00
1892, 1298.00
1893, 1296.00
1894, 1298.00
1895, 1298.00
1896, 1297.00
1897, 1299.00
1898, 1296.00
1899, 1297.00
1900, 1296.00
1901, 1297.00
1902, 1297.00
1903, 1297.00
1904, 1297.00
1905, 1295.00
1906, 1294.00
1907, 1296.00
1908, 1296.00
1909, 1295.00
1910, 1294.00
1911, 1297.00
1912, 1295.00
1913, 1296.00
1914, 1295.00
1915, 1295.00
1916, 1295.00
1917, 1294.00
1918, 1296.00
1919, 1295.00
1920, 1296.00
1921, 1295.00
1922, 1292.00
1923, 1295.00
1924, 1294.00
1925, 1293.00
1926, 1296.00
1927, 1293.00
1928, 1296.00
1929, 1296.00
1930, 1294.00
1931, 1294.00
1932, 1297.00
1933, 1295.00
1934, 1295.00
1935, 1297.00
1936, 1296.00
1937, 1294.00
1938, 1295.00
1939, 1297.00
1940, 1296.00
1941, 1296.00
1942, 1296.00
1943, 1297.00
1944, 1297.00
1945, 1297.00
1946, 1296.00
1947, 1298.00
1948, 1298.00
1949, 1300.00
1950, 1297.00
1951, 1300.00
1952, 1299.00
1953, 1298.00
1954, 1300.00
1955, 1299.00
1956, 1299.00
1957, 1300.00
1958, 1300.00
1959, 1302.00
1960, 1301.00
1961, 1299.00
1962, 1304.00
1963, 1301.00
1964, 1303.00
1965, 1301.00
1966, 1305.00
1967, 1304.00
1968, 1304.00
1969, 1305.00
1970, 1305.00
1971, 1305.00
1972, 1307.00
1973, 1306.00
1974, 1307.00
1975, 1308.00
1976, 1307.00
1977, 1308.00
1978, 1308.00
1979, 1308.00
1980, 1309.00
1981, 1309.00
1982, 1309.00
1983, 1309.00
1984, 1309.00
1985, 1311.00
1986, 1311.00
1987, 1312.00
1988, 1311.00
1989, 1312.00
1990, 1313.00
1991, 1313.00
1992, 1314.00
1993, 1313.00
1994, 1313.00
1995, 1314.00
1996, 1315.00
1997, 1315.00
1998, 1315.00
1999, 1316.00
2000, 1317.00
2001, 1317.00
2002, 1316.00
2003, 1318.00
2004, 1318.00
2005, 1320.00
2006, 1318.00
2007, 1318.00
2008, 1320.00
2009, 1321.00
2010, 1321.00
2011, 1319.00
2012, 1321.00
2013, 1320.00
2014, 1321.00
2015, 1321.00
2016, 1322.00
2017, 1321.00
2018, 1323.00
2019, 1322.00
2020, 1324.00
2021, 1323.00
2022, 1324.00
2023, 1326.00
2024, 1325.00
2025, 1325.00
2026, 1325.00
2027, 1326.00
2028, 1327.00
2029, 1328.00
2030, 1328.00
2031, 1327.00
2032, 1330.00
2033, 1327.00
2034, 1328.00
2035, 1331.00
2036, 1330.00
2037, 1330.00
2038, 1331.00
2039, 1332.00
2040, 1331.00
2041, 1333.00
2042, 1332.00
2043, 1333.00
2044, 1333.00
2045, 1335.00
2046, 1334.00
2047, 1335.00
2048, 1335.00
2049, 1337.00
2050, 1336.00
2051, 1340.00
2052, 1338.00
2053, 1338.00
2054, 1339.00
2055, 1341.00
2056, 1340.00
2057, 1340.00
2058, 1343.00
2059, 1342.00
2060, 1342.00
2061, 1343.00
2062, 1344.00
2063, 1345.00
2064, 1346.00
2065, 1345.00
2066, 1346.00
2067, 1347.00
2068, 1347.00
2069, 1345.00
2070, 1348.00
2071, 1349.00
2072, 1349.00
2073, 1349.00
2074, 1350.00
2075, 1351.00
2076, 1352.00
2077, 1351.00
2078, 1354.00
2079, 1353.00
2080, 1353.00
2081, 1353.00
2082, 1353.00
2083, 1355.00
2084, 1354.00
2085, 1355.00
2086, 1355.00
2087, 1354.00
2088, 1356.00
2089, 1356.00
2090, 1357.00
2091, 1358.00
2092, 1357.00
2093, 1357.00
2094, 1358.00
2095, 1359.00
2096, 1358.00
2097, 1360.00
2098, 1360.00
2099, 1359.00
2100, 1361.00
2101, 1358.00
2102, 1361.00
2103, 1361.00
2104, 1362.00
2105, 1360.00
2106, 1362.00
2107, 1361.00
2108, 1362.00
2109, 1362.00
2110, 1363.00
2111, 1362.00
2112, 1362.00
2113, 1364.00
2114, 1367.00
2115, 1362.00
2116, 1365.00
2117, 1363.00
2118, 1364.00
2119, 1365.00
2120, 1363.00
2121, 1363.00
2122, 1365.00
2123, 1364.00
2124, 1365.00
2125, 1364.00
2126, 1365.00
2127, 1364.00
2128, 1366.00
2129, 1364.00
2130, 1367.00
2131, 1366.00
2132, 1365.00
2133, 1364.00
2134, 1366.00
2135, 1367.00
2136, 1365.00
2137, 1367.00
2138, 1367.00
2139, 1366.00
2140, 1366.00
2141, 1368.00
2142, 1368.00
2143, 1367.00
2144, 1368.00
2145, 1369.00
2146, 1368.00
2147, 1369.00
2148, 1369.00
2149, 1368.00
2150, 1367.00
