FW version: 24
Log Version: 3.0.3

General Info:
       Command/Macro Performed,            Timestamp,             Device ID, COM Port, UART/I2C, Test Name, Host Major, Host Minor, Host Revision, Host Git Commit
            Single_measurement,  2023_06_30_12_25_09,       Insight2_F4_xxx,    USB-C,      USB,          ,          0,          1,             1,      4031237645

Show Spectrometer Status:
l0_version, f4_version, battery_perc, battery_mVolt, accelerometer_temp, accelerometer_x, accelerometer_y, accelerometer_z, compass_temp, compass_x, compass_y, compass_z, lamp_0, lamp_1, gain_0, gain_1
        17,         24,           95,          2080,               5792,           65280,              80,           18444,            0,     65338,     65372,     65502,   2866,   2866,      1,      1

Temperature Statistic Info:
NTC AVG [°C], NTC2 AVG [°C]
      37.868,        37.583

Statistic Info:
M1:  num,      min,      max,   median,      AVG,      STD,M2:  num,      min,      max,   median,      AVG,      STD
     301,  1454.00,  1647.00,  1498.00,  1518.10,  59.8816,     401,  2079.00,  2193.00,  2140.00,  2137.52,  39.5423,

Measurements:
Wavelength, Data Amplitude
1350, 1475.00
1351, 1474.00
1352, 1474.00
1353, 1474.00
1354, 1472.00
1355, 1473.00
1356, 1474.00
1357, 1473.00
1358, 1472.00
1359, 1471.00
1360, 1472.00
1361, 1471.00
1362, 1470.00
1363, 1470.00
1364, 1470.00
1365, 1470.00
1366, 1469.00
1367, 1469.00
1368, 1467.00
1369, 1467.00
1370, 1466.00
1371, 1466.00
1372, 1466.00
1373, 1464.00
1374, 1464.00
1375, 1463.00
1376, 1462.00
1377, 1462.00
1378, 1461.00
1379, 1462.00
1380, 1461.00
1381, 1461.00
1382, 1460.00
1383, 1460.00
1384, 1459.00
1385, 1459.00
1386, 1458.00
1387, 1459.00
1388, 1459.00
1389, 1458.00
1390, 1457.00
1391, 1458.00
1392, 1458.00
1393, 1457.00
1394, 1457.00
1395, 1456.00
1396, 1457.00
1397, 1457.00
1398, 1457.00
1399, 1455.00
1400, 1455.00
1401, 1455.00
1402, 1456.00
1403, 1455.00
1404, 1456.00
1405, 1456.00
1406, 1454.00
1407, 1455.00
1408, 1454.00
1409, 1456.00
1410, 1455.00
1411, 1455.00
1412, 1454.00
1413, 1455.00
1414, 1455.00
1415, 1456.00
1416, 1455.00
1417, 1456.00
1418, 1454.00
1419, 1456.00
1420, 1456.00
1421, 1456.00
1422, 1455.00
1423, 1457.00
1424, 1456.00
1425, 1456.00
1426, 1456.00
1427, 1456.00
1428, 1456.00
1429, 1457.00
1430, 1457.00
1431, 1457.00
1432, 1457.00
1433, 1458.00
1434, 1457.00
1435, 1459.00
1436, 1459.00
1437, 1459.00
1438, 1460.00
1439, 1460.00
1440, 1460.00
1441, 1462.00
1442, 1461.00
1443, 1461.00
1444, 1462.00
1445, 1463.00
1446, 1463.00
1447, 1463.00
1448, 1464.00
1449, 1464.00
1450, 1464.00
1451, 1465.00
1452, 1466.00
1453, 1466.00
1454, 1467.00
1455, 1467.00
1456, 1467.00
1457, 1468.00
1458, 1468.00
1459, 1467.00
1460, 1469.00
1461, 1470.00
1462, 1471.00
1463, 1471.00
1464, 1471.00
1465, 1472.00
1466, 1473.00
1467, 1474.00
1468, 1474.00
1469, 1476.00
1470, 1476.00
1471, 1476.00
1472, 1477.00
1473, 1478.00
1474, 1478.00
1475, 1479.00
1476, 1480.00
1477, 1481.00
1478, 1481.00
1479, 1483.00
1480, 1482.00
1481, 1484.00
1482, 1485.00
1483, 1486.00
1484, 1486.00
1485, 1486.00
1486, 1487.00
1487, 1488.00
1488, 1489.00
1489, 1489.00
1490, 1491.00
1491, 1492.00
1492, 1493.00
1493, 1493.00
1494, 1494.00
1495, 1496.00
1496, 1497.00
1497, 1496.00
1498, 1497.00
1499, 1498.00
1500, 1498.00
1501, 1500.00
1502, 1501.00
1503, 1501.00
1504, 1501.00
1505, 1502.00
1506, 1503.00
1507, 1504.00
1508, 1506.00
1509, 1507.00
1510, 1507.00
1511, 1507.00
1512, 1508.00
1513, 1509.00
1514, 1510.00
1515, 1511.00
1516, 1511.00
1517, 1512.00
1518, 1513.00
1519, 1516.00
1520, 1515.00
1521, 1517.00
1522, 1517.00
1523, 1517.00
1524, 1519.00
1525, 1520.00
1526, 1522.00
1527, 1523.00
1528, 1522.00
1529, 1524.00
1530, 1525.00
1531, 1525.00
1532, 1526.00
1533, 1527.00
1534, 1528.00
1535, 1529.00
1536, 1530.00
1537, 1531.00
1538, 1531.00
1539, 1532.00
1540, 1534.00
1541, 1534.00
1542, 1535.00
1543, 1537.00
1544, 1536.00
1545, 1538.00
1546, 1539.00
1547, 1541.00
1548, 1541.00
1549, 1543.00
1550, 1542.00
1551, 1543.00
1552, 1545.00
1553, 1545.00
1554, 1547.00
1555, 1547.00
1556, 1548.00
1557, 1548.00
1558, 1550.00
1559, 1552.00
1560, 1553.00
1561, 1552.00
1562, 1554.00
1563, 1556.00
1564, 1557.00
1565, 1558.00
1566, 1559.00
1567, 1560.00
1568, 1560.00
1569, 1561.00
1570, 1563.00
1571, 1563.00
1572, 1564.00
1573, 1566.00
1574, 1567.00
1575, 1567.00
1576, 1568.00
1577, 1569.00
1578, 1570.00
1579, 1571.00
1580, 1573.00
1581, 1573.00
1582, 1574.00
1583, 1574.00
1584, 1576.00
1585, 1578.00
1586, 1578.00
1587, 1578.00
1588, 1578.00
1589, 1581.00
1590, 1582.00
1591, 1582.00
1592, 1583.00
1593, 1584.00
1594, 1585.00
1595, 1586.00
1596, 1587.00
1597, 1587.00
1598, 1589.00
1599, 1589.00
1600, 1591.00
1601, 1591.00
1602, 1593.00
1603, 1593.00
1604, 1594.00
1605, 1595.00
1606, 1596.00
1607, 1598.00
1608, 1599.00
1609, 1600.00
1610, 1601.00
1611, 1604.00
1612, 1604.00
1613, 1605.00
1614, 1605.00
1615, 1607.00
1616, 1609.00
1617, 1610.00
1618, 1612.00
1619, 1611.00
1620, 1615.00
1621, 1616.00
1622, 1616.00
1623, 1617.00
1624, 1619.00
1625, 1619.00
1626, 1621.00
1627, 1622.00
1628, 1623.00
1629, 1625.00
1630, 1625.00
1631, 1627.00
1632, 1628.00
1633, 1629.00
1634, 1629.00
1635, 1630.00
1636, 1632.00
1637, 1633.00
1638, 1633.00
1639, 1634.00
1640, 1635.00
1641, 1637.00
1642, 1637.00
1643, 1639.00
1644, 1639.00
1645, 1641.00
1646, 1642.00
1647, 1644.00
1648, 1644.00
1649, 1644.00
1650, 1647.00

1750, 2192.00
1751, 2193.00
1752, 2191.00
1753, 2192.00
1754, 2192.00
1755, 2189.00
1756, 2191.00
1757, 2191.00
1758, 2192.00
1759, 2193.00
1760, 2192.00
1761, 2191.00
1762, 2192.00
1763, 2193.00
1764, 2190.00
1765, 2192.00
1766, 2190.00
1767, 2190.00
1768, 2192.00
1769, 2190.00
1770, 2192.00
1771, 2190.00
1772, 2190.00
1773, 2189.00
1774, 2190.00
1775, 2188.00
1776, 2189.00
1777, 2188.00
1778, 2188.00
1779, 2187.00
1780, 2186.00
1781, 2186.00
1782, 2187.00
1783, 2185.00
1784, 2185.00
1785, 2185.00
1786, 2186.00
1787, 2185.00
1788, 2184.00
1789, 2185.00
1790, 2185.00
1791, 2182.00
1792, 2184.00
1793, 2182.00
1794, 2182.00
1795, 2182.00
1796, 2180.00
1797, 2182.00
1798, 2180.00
1799, 2181.00
1800, 2181.00
1801, 2180.00
1802, 2180.00
1803, 2179.00
1804, 2178.00
1805, 2178.00
1806, 2178.00
1807, 2179.00
1808, 2179.00
1809, 2177.00
1810, 2178.00
1811, 2177.00
1812, 2176.00
1813, 2175.00
1814, 2176.00
1815, 2176.00
1816, 2176.00
1817, 2175.00
1818, 2175.00
1819, 2176.00
1820, 2175.00
1821, 2174.00
1822, 2174.00
1823, 2173.00
1824, 2171.00
1825, 2171.00
1826, 2172.00
1827, 2169.00
1828, 2169.00
1829, 2168.00
1830, 2167.00
1831, 2166.00
1832, 2165.00
1833, 2165.00
1834, 2163.00
1835, 2162.00
1836, 2161.00
1837, 2158.00
1838, 2159.00
1839, 2158.00
1840, 2156.00
1841, 2154.00
1842, 2153.00
1843, 2150.00
1844, 2148.00
1845, 2147.00
1846, 2145.00
1847, 2144.00
1848, 2143.00
1849, 2140.00
1850, 2137.00
1851, 2138.00
1852, 2135.00
1853, 2131.00
1854, 2131.00
1855, 2131.00
1856, 2129.00
1857, 2125.00
1858, 2123.00
1859, 2122.00
1860, 2120.00
1861, 2117.00
1862, 2116.00
1863, 2113.00
1864, 2114.00
1865, 2112.00
1866, 2108.00
1867, 2108.00
1868, 2105.00
1869, 2106.00
1870, 2105.00
1871, 2103.00
1872, 2101.00
1873, 2100.00
1874, 2098.00
1875, 2099.00
1876, 2098.00
1877, 2094.00
1878, 2096.00
1879, 2094.00
1880, 2093.00
1881, 2094.00
1882, 2094.00
1883, 2090.00
1884, 2089.00
1885, 2091.00
1886, 2087.00
1887, 2088.00
1888, 2088.00
1889, 2086.00
1890, 2087.00
1891, 2086.00
1892, 2086.00
1893, 2087.00
1894, 2086.00
1895, 2084.00
1896, 2084.00
1897, 2084.00
1898, 2084.00
1899, 2084.00
1900, 2084.00
1901, 2083.00
1902, 2082.00
1903, 2081.00
1904, 2083.00
1905, 2083.00
1906, 2082.00
1907, 2083.00
1908, 2082.00
1909, 2080.00
1910, 2080.00
1911, 2081.00
1912, 2080.00
1913, 2081.00
1914, 2080.00
1915, 2079.00
1916, 2080.00
1917, 2081.00
1918, 2080.00
1919, 2081.00
1920, 2081.00
1921, 2080.00
1922, 2081.00
1923, 2079.00
1924, 2079.00
1925, 2082.00
1926, 2080.00
1927, 2080.00
1928, 2080.00
1929, 2081.00
1930, 2080.00
1931, 2081.00
1932, 2082.00
1933, 2082.00
1934, 2079.00
1935, 2080.00
1936, 2082.00
1937, 2082.00
1938, 2081.00
1939, 2082.00
1940, 2082.00
1941, 2082.00
1942, 2082.00
1943, 2084.00
1944, 2084.00
1945, 2084.00
1946, 2084.00
1947, 2084.00
1948, 2084.00
1949, 2084.00
1950, 2086.00
1951, 2085.00
1952, 2083.00
1953, 2085.00
1954, 2086.00
1955, 2086.00
1956, 2087.00
1957, 2090.00
1958, 2088.00
1959, 2087.00
1960, 2088.00
1961, 2091.00
1962, 2091.00
1963, 2091.00
1964, 2091.00
1965, 2089.00
1966, 2092.00
1967, 2091.00
1968, 2092.00
1969, 2094.00
1970, 2095.00
1971, 2094.00
1972, 2095.00
1973, 2096.00
1974, 2096.00
1975, 2097.00
1976, 2099.00
1977, 2098.00
1978, 2098.00
1979, 2099.00
1980, 2101.00
1981, 2100.00
1982, 2101.00
1983, 2102.00
1984, 2102.00
1985, 2103.00
1986, 2103.00
1987, 2105.00
1988, 2106.00
1989, 2105.00
1990, 2105.00
1991, 2105.00
1992, 2108.00
1993, 2108.00
1994, 2107.00
1995, 2107.00
1996, 2109.00
1997, 2109.00
1998, 2111.00
1999, 2109.00
2000, 2112.00
2001, 2111.00
2002, 2113.00
2003, 2112.00
2004, 2114.00
2005, 2114.00
2006, 2114.00
2007, 2114.00
2008, 2116.00
2009, 2117.00
2010, 2117.00
2011, 2116.00
2012, 2117.00
2013, 2116.00
2014, 2121.00
2015, 2121.00
2016, 2119.00
2017, 2120.00
2018, 2121.00
2019, 2121.00
2020, 2121.00
2021, 2122.00
2022, 2121.00
2023, 2121.00
2024, 2122.00
2025, 2123.00
2026, 2125.00
2027, 2124.00
2028, 2125.00
2029, 2127.00
2030, 2125.00
2031, 2128.00
2032, 2128.00
2033, 2130.00
2034, 2128.00
2035, 2129.00
2036, 2131.00
2037, 2130.00
2038, 2131.00
2039, 2134.00
2040, 2133.00
2041, 2133.00
2042, 2135.00
2043, 2135.00
2044, 2137.00
2045, 2135.00
2046, 2136.00
2047, 2139.00
2048, 2139.00
2049, 2139.00
2050, 2141.00
2051, 2141.00
2052, 2141.00
2053, 2143.00
2054, 2142.00
2055, 2143.00
2056, 2146.00
2057, 2145.00
2058, 2146.00
2059, 2146.00
2060, 2148.00
2061, 2148.00
2062, 2148.00
2063, 2152.00
2064, 2152.00
2065, 2153.00
2066, 2154.00
2067, 2155.00
2068, 2154.00
2069, 2154.00
2070, 2156.00
2071, 2156.00
2072, 2157.00
2073, 2158.00
2074, 2160.00
2075, 2161.00
2076, 2160.00
2077, 2162.00
2078, 2161.00
2079, 2161.00
2080, 2163.00
2081, 2164.00
2082, 2163.00
2083, 2163.00
2084, 2166.00
2085, 2167.00
2086, 2167.00
2087, 2168.00
2088, 2167.00
2089, 2171.00
2090, 2168.00
2091, 2169.00
2092, 2169.00
2093, 2169.00
2094, 2169.00
2095, 2171.00
2096, 2170.00
2097, 2173.00
2098, 2173.00
2099, 2174.00
2100, 2173.00
2101, 2173.00
2102, 2174.00
2103, 2176.00
2104, 2176.00
2105, 2174.00
2106, 2176.00
2107, 2175.00
2108, 2175.00
2109, 2176.00
2110, 2176.00
2111, 2176.00
2112, 2177.00
2113, 2177.00
2114, 2178.00
2115, 2178.00
2116, 2180.00
2117, 2177.00
2118, 2179.00
2119, 2178.00
2120, 2179.00
2121, 2179.00
2122, 2180.00
2123, 2181.00
2124, 2182.00
2125, 2180.00
2126, 2181.00
2127, 2180.00
2128, 2181.00
2129, 2182.00
2130, 2181.00
2131, 2181.00
2132, 2182.00
2133, 2185.00
2134, 2183.00
2135, 2182.00
2136, 2182.00
2137, 2183.00
2138, 2185.00
2139, 2184.00
2140, 2185.00
2141, 2183.00
2142, 2184.00
2143, 2184.00
2144, 2183.00
2145, 2182.00
2146, 2184.00
2147, 2184.00
2148, 2185.00
2149, 2186.00
2150, 2185.00
