FW version: 24
Log Version: 3.0.3

General Info:
       Command/Macro Performed,            Timestamp,             Device ID, COM Port, UART/I2C, Test Name, Host Major, Host Minor, Host Revision, Host Git Commit
            Single_measurement,  2023_06_30_12_25_28,       Insight2_F4_xxx,    USB-C,      USB,          ,          0,          1,             1,      4031237645

Show Spectrometer Status:
l0_version, f4_version, battery_perc, battery_mVolt, accelerometer_temp, accelerometer_x, accelerometer_y, accelerometer_z, compass_temp, compass_x, compass_y, compass_z, lamp_0, lamp_1, gain_0, gain_1
        17,         24,           95,          2079,               5824,           65272,             116,           18504,            0,     65535,     65396,     65518,   3276,   3276,      1,      1

Temperature Statistic Info:
NTC AVG [°C], NTC2 AVG [°C]
      38.011,        37.755

Statistic Info:
M1:  num,      min,      max,   median,      AVG,      STD,M2:  num,      min,      max,   median,      AVG,      STD
     301,  1868.00,  2106.00,  1922.00,  1947.17,  74.0723,     401,  2579.00,  2721.00,  2654.00,  2650.72,  48.4994,

Measurements:
Wavelength, Data Amplitude
1350, 1895.00
1351, 1895.00
1352, 1895.00
1353, 1894.00
1354, 1894.00
1355, 1894.00
1356, 1893.00
1357, 1893.00
1358, 1893.00
1359, 1893.00
1360, 1891.00
1361, 1891.00
1362, 1890.00
1363, 1889.00
1364, 1889.00
1365, 1888.00
1366, 1888.00
1367, 1887.00
1368, 1886.00
1369, 1885.00
1370, 1886.00
1371, 1884.00
1372, 1883.00
1373, 1882.00
1374, 1883.00
1375, 1882.00
1376, 1880.00
1377, 1879.00
1378, 1877.00
1379, 1878.00
1380, 1877.00
1381, 1876.00
1382, 1877.00
1383, 1877.00
1384, 1876.00
1385, 1874.00
1386, 1874.00
1387, 1874.00
1388, 1874.00
1389, 1873.00
1390, 1873.00
1391, 1873.00
1392, 1871.00
1393, 1873.00
1394, 1872.00
1395, 1872.00
1396, 1872.00
1397, 1872.00
1398, 1871.00
1399, 1871.00
1400, 1871.00
1401, 1871.00
1402, 1870.00
1403, 1870.00
1404, 1871.00
1405, 1870.00
1406, 1870.00
1407, 1869.00
1408, 1869.00
1409, 1869.00
1410, 1870.00
1411, 1870.00
1412, 1870.00
1413, 1868.00
1414, 1869.00
1415, 1869.00
1416, 1869.00
1417, 1870.00
1418, 1869.00
1419, 1869.00
1420, 1870.00
1421, 1868.00
1422, 1869.00
1423, 1870.00
1424, 1870.00
1425, 1869.00
1426, 1870.00
1427, 1870.00
1428, 1871.00
1429, 1871.00
1430, 1872.00
1431, 1871.00
1432, 1872.00
1433, 1873.00
1434, 1874.00
1435, 1873.00
1436, 1874.00
1437, 1875.00
1438, 1875.00
1439, 1876.00
1440, 1875.00
1441, 1876.00
1442, 1877.00
1443, 1877.00
1444, 1878.00
1445, 1877.00
1446, 1878.00
1447, 1878.00
1448, 1879.00
1449, 1880.00
1450, 1880.00
1451, 1881.00
1452, 1881.00
1453, 1882.00
1454, 1883.00
1455, 1883.00
1456, 1884.00
1457, 1884.00
1458, 1885.00
1459, 1887.00
1460, 1886.00
1461, 1887.00
1462, 1888.00
1463, 1889.00
1464, 1891.00
1465, 1890.00
1466, 1891.00
1467, 1891.00
1468, 1894.00
1469, 1893.00
1470, 1894.00
1471, 1895.00
1472, 1895.00
1473, 1897.00
1474, 1897.00
1475, 1899.00
1476, 1899.00
1477, 1900.00
1478, 1900.00
1479, 1902.00
1480, 1903.00
1481, 1904.00
1482, 1905.00
1483, 1906.00
1484, 1908.00
1485, 1908.00
1486, 1909.00
1487, 1910.00
1488, 1910.00
1489, 1913.00
1490, 1913.00
1491, 1914.00
1492, 1915.00
1493, 1916.00
1494, 1917.00
1495, 1918.00
1496, 1919.00
1497, 1919.00
1498, 1920.00
1499, 1922.00
1500, 1922.00
1501, 1923.00
1502, 1925.00
1503, 1925.00
1504, 1926.00
1505, 1927.00
1506, 1928.00
1507, 1929.00
1508, 1929.00
1509, 1931.00
1510, 1932.00
1511, 1934.00
1512, 1934.00
1513, 1935.00
1514, 1937.00
1515, 1937.00
1516, 1938.00
1517, 1939.00
1518, 1940.00
1519, 1942.00
1520, 1943.00
1521, 1943.00
1522, 1943.00
1523, 1946.00
1524, 1947.00
1525, 1949.00
1526, 1950.00
1527, 1950.00
1528, 1951.00
1529, 1954.00
1530, 1953.00
1531, 1954.00
1532, 1955.00
1533, 1958.00
1534, 1959.00
1535, 1959.00
1536, 1961.00
1537, 1961.00
1538, 1963.00
1539, 1963.00
1540, 1966.00
1541, 1966.00
1542, 1967.00
1543, 1969.00
1544, 1970.00
1545, 1970.00
1546, 1973.00
1547, 1973.00
1548, 1973.00
1549, 1976.00
1550, 1977.00
1551, 1978.00
1552, 1979.00
1553, 1980.00
1554, 1981.00
1555, 1983.00
1556, 1983.00
1557, 1986.00
1558, 1986.00
1559, 1988.00
1560, 1989.00
1561, 1990.00
1562, 1992.00
1563, 1994.00
1564, 1994.00
1565, 1996.00
1566, 1998.00
1567, 1999.00
1568, 1999.00
1569, 2000.00
1570, 2003.00
1571, 2004.00
1572, 2005.00
1573, 2006.00
1574, 2007.00
1575, 2008.00
1576, 2010.00
1577, 2011.00
1578, 2012.00
1579, 2014.00
1580, 2013.00
1581, 2014.00
1582, 2016.00
1583, 2018.00
1584, 2019.00
1585, 2020.00
1586, 2021.00
1587, 2023.00
1588, 2024.00
1589, 2025.00
1590, 2026.00
1591, 2027.00
1592, 2029.00
1593, 2028.00
1594, 2031.00
1595, 2031.00
1596, 2032.00
1597, 2033.00
1598, 2035.00
1599, 2036.00
1600, 2037.00
1601, 2039.00
1602, 2040.00
1603, 2040.00
1604, 2042.00
1605, 2043.00
1606, 2044.00
1607, 2047.00
1608, 2048.00
1609, 2048.00
1610, 2050.00
1611, 2053.00
1612, 2054.00
1613, 2055.00
1614, 2057.00
1615, 2059.00
1616, 2060.00
1617, 2060.00
1618, 2063.00
1619, 2064.00
1620, 2066.00
1621, 2067.00
1622, 2069.00
1623, 2070.00
1624, 2071.00
1625, 2073.00
1626, 2075.00
1627, 2076.00
1628, 2077.00
1629, 2080.00
1630, 2080.00
1631, 2081.00
1632, 2083.00
1633, 2084.00
1634, 2085.00
1635, 2087.00
1636, 2089.00
1637, 2090.00
1638, 2091.00
1639, 2092.00
1640, 2092.00
1641, 2094.00
1642, 2096.00
1643, 2096.00
1644, 2098.00
1645, 2098.00
1646, 2101.00
1647, 2102.00
1648, 2103.00
1649, 2104.00
1650, 2106.00

1750, 2721.00
1751, 2721.00
1752, 2721.00
1753, 2718.00
1754, 2720.00
1755, 2721.00
1756, 2721.00
1757, 2719.00
1758, 2720.00
1759, 2721.00
1760, 2721.00
1761, 2720.00
1762, 2719.00
1763, 2720.00
1764, 2721.00
1765, 2719.00
1766, 2719.00
1767, 2718.00
1768, 2717.00
1769, 2719.00
1770, 2716.00
1771, 2717.00
1772, 2717.00
1773, 2718.00
1774, 2715.00
1775, 2715.00
1776, 2717.00
1777, 2714.00
1778, 2713.00
1779, 2714.00
1780, 2713.00
1781, 2713.00
1782, 2711.00
1783, 2711.00
1784, 2711.00
1785, 2711.00
1786, 2711.00
1787, 2711.00
1788, 2709.00
1789, 2711.00
1790, 2707.00
1791, 2710.00
1792, 2707.00
1793, 2708.00
1794, 2707.00
1795, 2705.00
1796, 2707.00
1797, 2705.00
1798, 2705.00
1799, 2705.00
1800, 2705.00
1801, 2703.00
1802, 2705.00
1803, 2704.00
1804, 2704.00
1805, 2701.00
1806, 2702.00
1807, 2702.00
1808, 2701.00
1809, 2702.00
1810, 2702.00
1811, 2700.00
1812, 2699.00
1813, 2699.00
1814, 2699.00
1815, 2698.00
1816, 2699.00
1817, 2697.00
1818, 2698.00
1819, 2698.00
1820, 2695.00
1821, 2696.00
1822, 2695.00
1823, 2694.00
1824, 2695.00
1825, 2691.00
1826, 2694.00
1827, 2692.00
1828, 2690.00
1829, 2690.00
1830, 2688.00
1831, 2689.00
1832, 2687.00
1833, 2686.00
1834, 2683.00
1835, 2682.00
1836, 2681.00
1837, 2679.00
1838, 2677.00
1839, 2673.00
1840, 2674.00
1841, 2673.00
1842, 2671.00
1843, 2668.00
1844, 2667.00
1845, 2666.00
1846, 2662.00
1847, 2660.00
1848, 2658.00
1849, 2655.00
1850, 2652.00
1851, 2649.00
1852, 2649.00
1853, 2646.00
1854, 2643.00
1855, 2641.00
1856, 2639.00
1857, 2637.00
1858, 2635.00
1859, 2632.00
1860, 2629.00
1861, 2628.00
1862, 2625.00
1863, 2624.00
1864, 2621.00
1865, 2620.00
1866, 2618.00
1867, 2615.00
1868, 2615.00
1869, 2611.00
1870, 2610.00
1871, 2609.00
1872, 2606.00
1873, 2605.00
1874, 2603.00
1875, 2603.00
1876, 2601.00
1877, 2599.00
1878, 2599.00
1879, 2597.00
1880, 2598.00
1881, 2596.00
1882, 2596.00
1883, 2594.00
1884, 2594.00
1885, 2591.00
1886, 2592.00
1887, 2592.00
1888, 2591.00
1889, 2590.00
1890, 2588.00
1891, 2589.00
1892, 2588.00
1893, 2588.00
1894, 2586.00
1895, 2587.00
1896, 2585.00
1897, 2587.00
1898, 2586.00
1899, 2584.00
1900, 2584.00
1901, 2585.00
1902, 2585.00
1903, 2583.00
1904, 2584.00
1905, 2583.00
1906, 2582.00
1907, 2582.00
1908, 2582.00
1909, 2583.00
1910, 2580.00
1911, 2581.00
1912, 2580.00
1913, 2581.00
1914, 2582.00
1915, 2581.00
1916, 2580.00
1917, 2580.00
1918, 2580.00
1919, 2581.00
1920, 2579.00
1921, 2583.00
1922, 2580.00
1923, 2581.00
1924, 2579.00
1925, 2580.00
1926, 2580.00
1927, 2582.00
1928, 2581.00
1929, 2579.00
1930, 2580.00
1931, 2581.00
1932, 2581.00
1933, 2581.00
1934, 2581.00
1935, 2582.00
1936, 2583.00
1937, 2582.00
1938, 2584.00
1939, 2583.00
1940, 2584.00
1941, 2584.00
1942, 2583.00
1943, 2583.00
1944, 2586.00
1945, 2584.00
1946, 2584.00
1947, 2584.00
1948, 2585.00
1949, 2586.00
1950, 2586.00
1951, 2586.00
1952, 2588.00
1953, 2589.00
1954, 2589.00
1955, 2588.00
1956, 2589.00
1957, 2590.00
1958, 2589.00
1959, 2592.00
1960, 2592.00
1961, 2593.00
1962, 2593.00
1963, 2594.00
1964, 2593.00
1965, 2593.00
1966, 2596.00
1967, 2595.00
1968, 2597.00
1969, 2596.00
1970, 2596.00
1971, 2597.00
1972, 2599.00
1973, 2599.00
1974, 2601.00
1975, 2602.00
1976, 2601.00
1977, 2602.00
1978, 2602.00
1979, 2604.00
1980, 2605.00
1981, 2606.00
1982, 2605.00
1983, 2607.00
1984, 2607.00
1985, 2608.00
1986, 2608.00
1987, 2609.00
1988, 2609.00
1989, 2610.00
1990, 2613.00
1991, 2612.00
1992, 2612.00
1993, 2614.00
1994, 2613.00
1995, 2613.00
1996, 2616.00
1997, 2615.00
1998, 2616.00
1999, 2620.00
2000, 2618.00
2001, 2619.00
2002, 2618.00
2003, 2620.00
2004, 2618.00
2005, 2622.00
2006, 2621.00
2007, 2622.00
2008, 2624.00
2009, 2624.00
2010, 2624.00
2011, 2626.00
2012, 2624.00
2013, 2625.00
2014, 2626.00
2015, 2627.00
2016, 2627.00
2017, 2627.00
2018, 2630.00
2019, 2630.00
2020, 2631.00
2021, 2631.00
2022, 2631.00
2023, 2633.00
2024, 2634.00
2025, 2632.00
2026, 2634.00
2027, 2636.00
2028, 2636.00
2029, 2636.00
2030, 2638.00
2031, 2639.00
2032, 2638.00
2033, 2640.00
2034, 2638.00
2035, 2641.00
2036, 2641.00
2037, 2643.00
2038, 2644.00
2039, 2644.00
2040, 2642.00
2041, 2645.00
2042, 2645.00
2043, 2647.00
2044, 2648.00
2045, 2649.00
2046, 2651.00
2047, 2650.00
2048, 2652.00
2049, 2653.00
2050, 2654.00
2051, 2654.00
2052, 2656.00
2053, 2655.00
2054, 2655.00
2055, 2658.00
2056, 2660.00
2057, 2659.00
2058, 2661.00
2059, 2662.00
2060, 2664.00
2061, 2664.00
2062, 2665.00
2063, 2666.00
2064, 2666.00
2065, 2666.00
2066, 2668.00
2067, 2671.00
2068, 2669.00
2069, 2671.00
2070, 2674.00
2071, 2672.00
2072, 2673.00
2073, 2674.00
2074, 2676.00
2075, 2676.00
2076, 2677.00
2077, 2679.00
2078, 2679.00
2079, 2680.00
2080, 2679.00
2081, 2681.00
2082, 2681.00
2083, 2682.00
2084, 2683.00
2085, 2684.00
2086, 2685.00
2087, 2685.00
2088, 2685.00
2089, 2687.00
2090, 2687.00
2091, 2687.00
2092, 2689.00
2093, 2689.00
2094, 2690.00
2095, 2690.00
2096, 2691.00
2097, 2693.00
2098, 2692.00
2099, 2693.00
2100, 2691.00
2101, 2691.00
2102, 2695.00
2103, 2695.00
2104, 2693.00
2105, 2694.00
2106, 2694.00
2107, 2694.00
2108, 2697.00
2109, 2697.00
2110, 2695.00
2111, 2697.00
2112, 2698.00
2113, 2698.00
2114, 2698.00
2115, 2698.00
2116, 2699.00
2117, 2700.00
2118, 2699.00
2119, 2700.00
2120, 2702.00
2121, 2698.00
2122, 2700.00
2123, 2701.00
2124, 2701.00
2125, 2702.00
2126, 2701.00
2127, 2702.00
2128, 2701.00
2129, 2701.00
2130, 2703.00
2131, 2703.00
2132, 2703.00
2133, 2704.00
2134, 2702.00
2135, 2704.00
2136, 2703.00
2137, 2704.00
2138, 2705.00
2139, 2706.00
2140, 2705.00
2141, 2705.00
2142, 2706.00
2143, 2705.00
2144, 2704.00
2145, 2705.00
2146, 2707.00
2147, 2706.00
2148, 2706.00
2149, 2707.00
2150, 2707.00
