FW version: 24
Log Version: 3.0.3

General Info:
       Command/Macro Performed,            Timestamp,             Device ID, COM Port, UART/I2C, Test Name, Host Major, Host Minor, Host Revision, Host Git Commit
            Single_measurement,  2023_06_27_12_25_25,       Insight2_F4_xxx,    USB-C,      USB,          ,          0,          1,             1,      4031237645

Show Spectrometer Status:
l0_version, f4_version, battery_perc, battery_mVolt, accelerometer_temp, accelerometer_x, accelerometer_y, accelerometer_z, compass_temp, compass_x, compass_y, compass_z, lamp_0, lamp_1, gain_0, gain_1
        17,         24,           95,          2078,               5360,           65416,              44,           18516,            0,     65529,     65390,     65364,   3276,   3276,    0,    0

Temperature Statistic Info:
NTC AVG [°C], NTC2 AVG [°C]
      36.637,        36.351

Statistic Info:
M1:  num,      min,      max,   median,      AVG,      STD,M2:  num,      min,      max,   median,      AVG,      STD
     301,   583.00,   660.00,   600.00,   608.63,  24.0725,     401,   805.00,   853.00,   830.00,   828.96,  16.1027,

Measurements:
Wavelength, Data Amplitude
1350, 592.00
1351, 592.00
1352, 592.00
1353, 593.00
1354, 592.00
1355, 591.00
1356, 592.00
1357, 592.00
1358, 592.00
1359, 592.00
1360, 591.00
1361, 591.00
1362, 591.00
1363, 591.00
1364, 590.00
1365, 590.00
1366, 590.00
1367, 590.00
1368, 589.00
1369, 589.00
1370, 589.00
1371, 588.00
1372, 588.00
1373, 588.00
1374, 588.00
1375, 588.00
1376, 587.00
1377, 587.00
1378, 587.00
1379, 587.00
1380, 586.00
1381, 586.00
1382, 586.00
1383, 585.00
1384, 585.00
1385, 585.00
1386, 585.00
1387, 585.00
1388, 585.00
1389, 584.00
1390, 585.00
1391, 584.00
1392, 584.00
1393, 584.00
1394, 584.00
1395, 584.00
1396, 584.00
1397, 584.00
1398, 584.00
1399, 584.00
1400, 583.00
1401, 584.00
1402, 584.00
1403, 583.00
1404, 584.00
1405, 584.00
1406, 583.00
1407, 583.00
1408, 583.00
1409, 583.00
1410, 583.00
1411, 583.00
1412, 583.00
1413, 583.00
1414, 583.00
1415, 584.00
1416, 583.00
1417, 584.00
1418, 583.00
1419, 583.00
1420, 583.00
1421, 584.00
1422, 583.00
1423, 583.00
1424, 584.00
1425, 584.00
1426, 583.00
1427, 583.00
1428, 584.00
1429, 584.00
1430, 584.00
1431, 584.00
1432, 584.00
1433, 584.00
1434, 585.00
1435, 585.00
1436, 585.00
1437, 585.00
1438, 585.00
1439, 585.00
1440, 585.00
1441, 585.00
1442, 585.00
1443, 586.00
1444, 586.00
1445, 586.00
1446, 586.00
1447, 586.00
1448, 587.00
1449, 586.00
1450, 587.00
1451, 587.00
1452, 587.00
1453, 587.00
1454, 588.00
1455, 588.00
1456, 588.00
1457, 588.00
1458, 588.00
1459, 589.00
1460, 589.00
1461, 589.00
1462, 589.00
1463, 589.00
1464, 590.00
1465, 590.00
1466, 590.00
1467, 590.00
1468, 590.00
1469, 591.00
1470, 591.00
1471, 591.00
1472, 592.00
1473, 592.00
1474, 593.00
1475, 593.00
1476, 593.00
1477, 593.00
1478, 594.00
1479, 594.00
1480, 594.00
1481, 594.00
1482, 594.00
1483, 595.00
1484, 595.00
1485, 596.00
1486, 596.00
1487, 596.00
1488, 597.00
1489, 597.00
1490, 597.00
1491, 598.00
1492, 598.00
1493, 598.00
1494, 599.00
1495, 599.00
1496, 599.00
1497, 599.00
1498, 600.00
1499, 600.00
1500, 600.00
1501, 601.00
1502, 600.00
1503, 601.00
1504, 602.00
1505, 602.00
1506, 603.00
1507, 602.00
1508, 603.00
1509, 603.00
1510, 604.00
1511, 604.00
1512, 604.00
1513, 605.00
1514, 605.00
1515, 605.00
1516, 606.00
1517, 606.00
1518, 607.00
1519, 608.00
1520, 608.00
1521, 608.00
1522, 608.00
1523, 608.00
1524, 609.00
1525, 609.00
1526, 609.00
1527, 610.00
1528, 610.00
1529, 610.00
1530, 611.00
1531, 611.00
1532, 611.00
1533, 612.00
1534, 612.00
1535, 613.00
1536, 613.00
1537, 613.00
1538, 614.00
1539, 614.00
1540, 614.00
1541, 615.00
1542, 615.00
1543, 615.00
1544, 616.00
1545, 616.00
1546, 616.00
1547, 617.00
1548, 617.00
1549, 618.00
1550, 618.00
1551, 618.00
1552, 619.00
1553, 619.00
1554, 620.00
1555, 620.00
1556, 620.00
1557, 621.00
1558, 621.00
1559, 622.00
1560, 622.00
1561, 623.00
1562, 623.00
1563, 624.00
1564, 624.00
1565, 624.00
1566, 625.00
1567, 625.00
1568, 626.00
1569, 626.00
1570, 627.00
1571, 627.00
1572, 627.00
1573, 628.00
1574, 628.00
1575, 628.00
1576, 629.00
1577, 629.00
1578, 630.00
1579, 630.00
1580, 631.00
1581, 631.00
1582, 631.00
1583, 632.00
1584, 632.00
1585, 633.00
1586, 633.00
1587, 633.00
1588, 634.00
1589, 634.00
1590, 635.00
1591, 634.00
1592, 635.00
1593, 635.00
1594, 636.00
1595, 636.00
1596, 637.00
1597, 637.00
1598, 637.00
1599, 638.00
1600, 638.00
1601, 638.00
1602, 639.00
1603, 639.00
1604, 640.00
1605, 640.00
1606, 640.00
1607, 640.00
1608, 641.00
1609, 641.00
1610, 642.00
1611, 643.00
1612, 643.00
1613, 644.00
1614, 644.00
1615, 644.00
1616, 645.00
1617, 645.00
1618, 646.00
1619, 647.00
1620, 647.00
1621, 648.00
1622, 648.00
1623, 648.00
1624, 649.00
1625, 650.00
1626, 650.00
1627, 651.00
1628, 651.00
1629, 651.00
1630, 652.00
1631, 652.00
1632, 653.00
1633, 653.00
1634, 654.00
1635, 654.00
1636, 654.00
1637, 655.00
1638, 655.00
1639, 656.00
1640, 656.00
1641, 656.00
1642, 657.00
1643, 657.00
1644, 658.00
1645, 658.00
1646, 659.00
1647, 659.00
1648, 659.00
1649, 660.00
1650, 660.00

1750, 851.00
1751, 852.00
1752, 852.00
1753, 852.00
1754, 852.00
1755, 852.00
1756, 852.00
1757, 853.00
1758, 852.00
1759, 852.00
1760, 852.00
1761, 852.00
1762, 852.00
1763, 852.00
1764, 852.00
1765, 852.00
1766, 852.00
1767, 852.00
1768, 852.00
1769, 851.00
1770, 851.00
1771, 851.00
1772, 851.00
1773, 851.00
1774, 851.00
1775, 851.00
1776, 851.00
1777, 850.00
1778, 850.00
1779, 850.00
1780, 850.00
1781, 850.00
1782, 850.00
1783, 849.00
1784, 850.00
1785, 849.00
1786, 849.00
1787, 849.00
1788, 849.00
1789, 850.00
1790, 849.00
1791, 848.00
1792, 848.00
1793, 848.00
1794, 848.00
1795, 848.00
1796, 847.00
1797, 847.00
1798, 847.00
1799, 847.00
1800, 846.00
1801, 847.00
1802, 847.00
1803, 846.00
1804, 846.00
1805, 847.00
1806, 847.00
1807, 846.00
1808, 846.00
1809, 846.00
1810, 845.00
1811, 845.00
1812, 845.00
1813, 845.00
1814, 845.00
1815, 845.00
1816, 846.00
1817, 845.00
1818, 844.00
1819, 844.00
1820, 844.00
1821, 844.00
1822, 844.00
1823, 844.00
1824, 843.00
1825, 843.00
1826, 844.00
1827, 842.00
1828, 843.00
1829, 842.00
1830, 841.00
1831, 841.00
1832, 841.00
1833, 841.00
1834, 840.00
1835, 839.00
1836, 839.00
1837, 838.00
1838, 839.00
1839, 837.00
1840, 837.00
1841, 836.00
1842, 836.00
1843, 835.00
1844, 834.00
1845, 834.00
1846, 833.00
1847, 833.00
1848, 832.00
1849, 832.00
1850, 830.00
1851, 829.00
1852, 828.00
1853, 828.00
1854, 827.00
1855, 826.00
1856, 825.00
1857, 825.00
1858, 824.00
1859, 823.00
1860, 822.00
1861, 822.00
1862, 821.00
1863, 820.00
1864, 820.00
1865, 819.00
1866, 818.00
1867, 817.00
1868, 817.00
1869, 816.00
1870, 816.00
1871, 816.00
1872, 814.00
1873, 814.00
1874, 814.00
1875, 813.00
1876, 813.00
1877, 812.00
1878, 813.00
1879, 812.00
1880, 811.00
1881, 811.00
1882, 811.00
1883, 811.00
1884, 810.00
1885, 809.00
1886, 809.00
1887, 809.00
1888, 808.00
1889, 809.00
1890, 809.00
1891, 808.00
1892, 808.00
1893, 808.00
1894, 808.00
1895, 807.00
1896, 808.00
1897, 808.00
1898, 807.00
1899, 807.00
1900, 807.00
1901, 808.00
1902, 807.00
1903, 807.00
1904, 807.00
1905, 807.00
1906, 807.00
1907, 806.00
1908, 807.00
1909, 806.00
1910, 806.00
1911, 806.00
1912, 806.00
1913, 806.00
1914, 806.00
1915, 806.00
1916, 806.00
1917, 806.00
1918, 805.00
1919, 805.00
1920, 805.00
1921, 805.00
1922, 806.00
1923, 806.00
1924, 806.00
1925, 805.00
1926, 806.00
1927, 805.00
1928, 806.00
1929, 806.00
1930, 806.00
1931, 806.00
1932, 806.00
1933, 806.00
1934, 806.00
1935, 807.00
1936, 806.00
1937, 806.00
1938, 806.00
1939, 806.00
1940, 806.00
1941, 806.00
1942, 807.00
1943, 807.00
1944, 807.00
1945, 808.00
1946, 807.00
1947, 807.00
1948, 807.00
1949, 807.00
1950, 807.00
1951, 807.00
1952, 808.00
1953, 808.00
1954, 808.00
1955, 809.00
1956, 808.00
1957, 808.00
1958, 809.00
1959, 809.00
1960, 809.00
1961, 810.00
1962, 810.00
1963, 810.00
1964, 810.00
1965, 810.00
1966, 810.00
1967, 810.00
1968, 811.00
1969, 811.00
1970, 812.00
1971, 812.00
1972, 811.00
1973, 812.00
1974, 812.00
1975, 813.00
1976, 812.00
1977, 813.00
1978, 813.00
1979, 813.00
1980, 813.00
1981, 813.00
1982, 814.00
1983, 814.00
1984, 814.00
1985, 814.00
1986, 815.00
1987, 815.00
1988, 815.00
1989, 816.00
1990, 815.00
1991, 815.00
1992, 816.00
1993, 817.00
1994, 817.00
1995, 817.00
1996, 817.00
1997, 818.00
1998, 817.00
1999, 818.00
2000, 818.00
2001, 818.00
2002, 818.00
2003, 819.00
2004, 818.00
2005, 819.00
2006, 819.00
2007, 820.00
2008, 820.00
2009, 820.00
2010, 820.00
2011, 820.00
2012, 820.00
2013, 820.00
2014, 821.00
2015, 821.00
2016, 821.00
2017, 822.00
2018, 821.00
2019, 822.00
2020, 823.00
2021, 822.00
2022, 823.00
2023, 823.00
2024, 823.00
2025, 823.00
2026, 823.00
2027, 824.00
2028, 824.00
2029, 824.00
2030, 825.00
2031, 825.00
2032, 824.00
2033, 825.00
2034, 826.00
2035, 825.00
2036, 825.00
2037, 826.00
2038, 826.00
2039, 826.00
2040, 827.00
2041, 827.00
2042, 827.00
2043, 827.00
2044, 828.00
2045, 828.00
2046, 829.00
2047, 829.00
2048, 829.00
2049, 830.00
2050, 830.00
2051, 831.00
2052, 830.00
2053, 831.00
2054, 831.00
2055, 830.00
2056, 832.00
2057, 831.00
2058, 832.00
2059, 832.00
2060, 833.00
2061, 833.00
2062, 833.00
2063, 834.00
2064, 834.00
2065, 834.00
2066, 836.00
2067, 835.00
2068, 835.00
2069, 836.00
2070, 836.00
2071, 836.00
2072, 836.00
2073, 837.00
2074, 836.00
2075, 838.00
2076, 838.00
2077, 838.00
2078, 838.00
2079, 838.00
2080, 838.00
2081, 839.00
2082, 840.00
2083, 839.00
2084, 840.00
2085, 840.00
2086, 840.00
2087, 841.00
2088, 840.00
2089, 841.00
2090, 840.00
2091, 841.00
2092, 842.00
2093, 842.00
2094, 842.00
2095, 842.00
2096, 842.00
2097, 842.00
2098, 842.00
2099, 842.00
2100, 843.00
2101, 843.00
2102, 843.00
2103, 843.00
2104, 842.00
2105, 843.00
2106, 844.00
2107, 844.00
2108, 844.00
2109, 844.00
2110, 844.00
2111, 844.00
2112, 844.00
2113, 845.00
2114, 844.00
2115, 844.00
2116, 845.00
2117, 845.00
2118, 845.00
2119, 845.00
2120, 845.00
2121, 846.00
2122, 845.00
2123, 846.00
2124, 846.00
2125, 846.00
2126, 846.00
2127, 846.00
2128, 846.00
2129, 846.00
2130, 846.00
2131, 846.00
2132, 846.00
2133, 846.00
2134, 846.00
2135, 846.00
2136, 846.00
2137, 846.00
2138, 847.00
2139, 847.00
2140, 846.00
2141, 846.00
2142, 846.00
2143, 847.00
2144, 847.00
2145, 847.00
2146, 847.00
2147, 847.00
2148, 848.00
2149, 847.00
2150, 847.00
