FW version: 24
Log Version: 3.0.3

General Info:
       Command/Macro Performed,            Timestamp,             Device ID, COM Port, UART/I2C, Test Name, Host Major, Host Minor, Host Revision, Host Git Commit
            Single_measurement,  2023_07_11_12_01_03,       Insight2_F4_xxx,    USB-C,      USB,          ,          0,          1,             1,      4031237645

Show Spectrometer Status:
l0_version, f4_version, battery_perc, battery_mVolt, accelerometer_temp, accelerometer_x, accelerometer_y, accelerometer_z, compass_temp, compass_x, compass_y, compass_z, lamp_0, lamp_1, gain_0, gain_1
        17,         24,           52,          1911,               7056,           64844,            1576,           18780,            0,     65389,     65400,     18781,   3276,   3276,      1,      1

Temperature Statistic Info:
NTC AVG [°C], NTC2 AVG [°C]
      42.494,        42.131

Statistic Info:
M1:  num,      min,      max,   median,      AVG,      STD,M2:  num,      min,      max,   median,      AVG,      STD
     301,  1885.00,  2131.00,  1941.00,  1967.10,  77.1606,     401,  2620.00,  2765.00,  2697.00,  2694.05,  49.9356,

Measurements:
Wavelength, Data Amplitude
1350, 1913.00
1351, 1913.00
1352, 1913.00
1353, 1912.00
1354, 1911.00
1355, 1911.00
1356, 1912.00
1357, 1910.00
1358, 1910.00
1359, 1908.00
1360, 1909.00
1361, 1909.00
1362, 1908.00
1363, 1906.00
1364, 1905.00
1365, 1904.00
1366, 1904.00
1367, 1903.00
1368, 1903.00
1369, 1902.00
1370, 1901.00
1371, 1900.00
1372, 1899.00
1373, 1897.00
1374, 1898.00
1375, 1897.00
1376, 1895.00
1377, 1895.00
1378, 1895.00
1379, 1894.00
1380, 1895.00
1381, 1891.00
1382, 1892.00
1383, 1891.00
1384, 1891.00
1385, 1891.00
1386, 1889.00
1387, 1890.00
1388, 1889.00
1389, 1889.00
1390, 1888.00
1391, 1887.00
1392, 1887.00
1393, 1890.00
1394, 1889.00
1395, 1888.00
1396, 1888.00
1397, 1887.00
1398, 1887.00
1399, 1887.00
1400, 1887.00
1401, 1887.00
1402, 1887.00
1403, 1886.00
1404, 1887.00
1405, 1886.00
1406, 1886.00
1407, 1886.00
1408, 1886.00
1409, 1886.00
1410, 1886.00
1411, 1885.00
1412, 1886.00
1413, 1886.00
1414, 1885.00
1415, 1885.00
1416, 1886.00
1417, 1885.00
1418, 1885.00
1419, 1885.00
1420, 1886.00
1421, 1887.00
1422, 1886.00
1423, 1887.00
1424, 1887.00
1425, 1887.00
1426, 1887.00
1427, 1887.00
1428, 1888.00
1429, 1888.00
1430, 1889.00
1431, 1888.00
1432, 1889.00
1433, 1889.00
1434, 1890.00
1435, 1890.00
1436, 1891.00
1437, 1891.00
1438, 1892.00
1439, 1892.00
1440, 1893.00
1441, 1894.00
1442, 1893.00
1443, 1895.00
1444, 1895.00
1445, 1896.00
1446, 1895.00
1447, 1896.00
1448, 1897.00
1449, 1898.00
1450, 1900.00
1451, 1899.00
1452, 1900.00
1453, 1901.00
1454, 1901.00
1455, 1903.00
1456, 1902.00
1457, 1904.00
1458, 1903.00
1459, 1903.00
1460, 1905.00
1461, 1906.00
1462, 1907.00
1463, 1908.00
1464, 1907.00
1465, 1909.00
1466, 1909.00
1467, 1911.00
1468, 1910.00
1469, 1912.00
1470, 1912.00
1471, 1913.00
1472, 1915.00
1473, 1916.00
1474, 1917.00
1475, 1918.00
1476, 1917.00
1477, 1918.00
1478, 1920.00
1479, 1921.00
1480, 1922.00
1481, 1923.00
1482, 1924.00
1483, 1925.00
1484, 1927.00
1485, 1926.00
1486, 1928.00
1487, 1929.00
1488, 1929.00
1489, 1931.00
1490, 1932.00
1491, 1933.00
1492, 1934.00
1493, 1935.00
1494, 1936.00
1495, 1936.00
1496, 1938.00
1497, 1938.00
1498, 1940.00
1499, 1941.00
1500, 1941.00
1501, 1943.00
1502, 1943.00
1503, 1944.00
1504, 1945.00
1505, 1946.00
1506, 1948.00
1507, 1948.00
1508, 1950.00
1509, 1951.00
1510, 1952.00
1511, 1952.00
1512, 1954.00
1513, 1956.00
1514, 1956.00
1515, 1956.00
1516, 1958.00
1517, 1958.00
1518, 1960.00
1519, 1962.00
1520, 1961.00
1521, 1964.00
1522, 1964.00
1523, 1966.00
1524, 1967.00
1525, 1968.00
1526, 1968.00
1527, 1970.00
1528, 1971.00
1529, 1973.00
1530, 1974.00
1531, 1975.00
1532, 1977.00
1533, 1978.00
1534, 1979.00
1535, 1979.00
1536, 1981.00
1537, 1983.00
1538, 1984.00
1539, 1984.00
1540, 1986.00
1541, 1987.00
1542, 1989.00
1543, 1989.00
1544, 1990.00
1545, 1991.00
1546, 1994.00
1547, 1994.00
1548, 1995.00
1549, 1997.00
1550, 1998.00
1551, 1999.00
1552, 2000.00
1553, 2001.00
1554, 2003.00
1555, 2005.00
1556, 2006.00
1557, 2008.00
1558, 2007.00
1559, 2010.00
1560, 2011.00
1561, 2013.00
1562, 2013.00
1563, 2015.00
1564, 2017.00
1565, 2018.00
1566, 2019.00
1567, 2021.00
1568, 2022.00
1569, 2023.00
1570, 2025.00
1571, 2026.00
1572, 2027.00
1573, 2029.00
1574, 2030.00
1575, 2031.00
1576, 2032.00
1577, 2035.00
1578, 2035.00
1579, 2037.00
1580, 2038.00
1581, 2039.00
1582, 2040.00
1583, 2041.00
1584, 2043.00
1585, 2043.00
1586, 2044.00
1587, 2046.00
1588, 2047.00
1589, 2048.00
1590, 2049.00
1591, 2050.00
1592, 2052.00
1593, 2053.00
1594, 2054.00
1595, 2055.00
1596, 2056.00
1597, 2057.00
1598, 2060.00
1599, 2060.00
1600, 2061.00
1601, 2062.00
1602, 2064.00
1603, 2066.00
1604, 2067.00
1605, 2068.00
1606, 2069.00
1607, 2071.00
1608, 2072.00
1609, 2074.00
1610, 2075.00
1611, 2077.00
1612, 2078.00
1613, 2080.00
1614, 2082.00
1615, 2082.00
1616, 2085.00
1617, 2086.00
1618, 2087.00
1619, 2089.00
1620, 2089.00
1621, 2092.00
1622, 2093.00
1623, 2094.00
1624, 2095.00
1625, 2098.00
1626, 2100.00
1627, 2102.00
1628, 2103.00
1629, 2103.00
1630, 2105.00
1631, 2107.00
1632, 2108.00
1633, 2110.00
1634, 2111.00
1635, 2112.00
1636, 2114.00
1637, 2114.00
1638, 2115.00
1639, 2116.00
1640, 2119.00
1641, 2119.00
1642, 2120.00
1643, 2122.00
1644, 2124.00
1645, 2125.00
1646, 2125.00
1647, 2127.00
1648, 2129.00
1649, 2131.00
1650, 2131.00

1750, 2763.00
1751, 2764.00
1752, 2763.00
1753, 2765.00
1754, 2764.00
1755, 2765.00
1756, 2764.00
1757, 2764.00
1758, 2763.00
1759, 2764.00
1760, 2762.00
1761, 2763.00
1762, 2764.00
1763, 2764.00
1764, 2762.00
1765, 2763.00
1766, 2762.00
1767, 2763.00
1768, 2763.00
1769, 2760.00
1770, 2763.00
1771, 2761.00
1772, 2759.00
1773, 2759.00
1774, 2761.00
1775, 2756.00
1776, 2759.00
1777, 2757.00
1778, 2759.00
1779, 2757.00
1780, 2757.00
1781, 2757.00
1782, 2758.00
1783, 2755.00
1784, 2756.00
1785, 2755.00
1786, 2752.00
1787, 2754.00
1788, 2753.00
1789, 2752.00
1790, 2752.00
1791, 2753.00
1792, 2751.00
1793, 2751.00
1794, 2750.00
1795, 2749.00
1796, 2749.00
1797, 2748.00
1798, 2747.00
1799, 2750.00
1800, 2747.00
1801, 2750.00
1802, 2747.00
1803, 2748.00
1804, 2744.00
1805, 2746.00
1806, 2744.00
1807, 2745.00
1808, 2745.00
1809, 2745.00
1810, 2743.00
1811, 2743.00
1812, 2744.00
1813, 2743.00
1814, 2742.00
1815, 2741.00
1816, 2741.00
1817, 2740.00
1818, 2739.00
1819, 2739.00
1820, 2739.00
1821, 2737.00
1822, 2739.00
1823, 2737.00
1824, 2735.00
1825, 2735.00
1826, 2733.00
1827, 2732.00
1828, 2733.00
1829, 2733.00
1830, 2730.00
1831, 2729.00
1832, 2727.00
1833, 2725.00
1834, 2724.00
1835, 2724.00
1836, 2721.00
1837, 2719.00
1838, 2717.00
1839, 2716.00
1840, 2715.00
1841, 2713.00
1842, 2710.00
1843, 2707.00
1844, 2705.00
1845, 2702.00
1846, 2701.00
1847, 2701.00
1848, 2697.00
1849, 2696.00
1850, 2691.00
1851, 2690.00
1852, 2689.00
1853, 2685.00
1854, 2684.00
1855, 2681.00
1856, 2680.00
1857, 2675.00
1858, 2673.00
1859, 2670.00
1860, 2670.00
1861, 2667.00
1862, 2662.00
1863, 2663.00
1864, 2660.00
1865, 2660.00
1866, 2657.00
1867, 2655.00
1868, 2653.00
1869, 2651.00
1870, 2647.00
1871, 2647.00
1872, 2646.00
1873, 2645.00
1874, 2644.00
1875, 2642.00
1876, 2642.00
1877, 2639.00
1878, 2637.00
1879, 2637.00
1880, 2637.00
1881, 2639.00
1882, 2636.00
1883, 2636.00
1884, 2634.00
1885, 2633.00
1886, 2633.00
1887, 2631.00
1888, 2632.00
1889, 2630.00
1890, 2629.00
1891, 2629.00
1892, 2626.00
1893, 2628.00
1894, 2625.00
1895, 2627.00
1896, 2626.00
1897, 2627.00
1898, 2626.00
1899, 2625.00
1900, 2625.00
1901, 2624.00
1902, 2624.00
1903, 2625.00
1904, 2623.00
1905, 2624.00
1906, 2623.00
1907, 2625.00
1908, 2620.00
1909, 2624.00
1910, 2624.00
1911, 2623.00
1912, 2623.00
1913, 2623.00
1914, 2622.00
1915, 2620.00
1916, 2623.00
1917, 2620.00
1918, 2622.00
1919, 2620.00
1920, 2622.00
1921, 2621.00
1922, 2624.00
1923, 2623.00
1924, 2622.00
1925, 2621.00
1926, 2621.00
1927, 2621.00
1928, 2622.00
1929, 2624.00
1930, 2624.00
1931, 2623.00
1932, 2621.00
1933, 2624.00
1934, 2621.00
1935, 2624.00
1936, 2622.00
1937, 2624.00
1938, 2625.00
1939, 2622.00
1940, 2623.00
1941, 2626.00
1942, 2625.00
1943, 2627.00
1944, 2624.00
1945, 2625.00
1946, 2626.00
1947, 2629.00
1948, 2628.00
1949, 2627.00
1950, 2629.00
1951, 2629.00
1952, 2630.00
1953, 2629.00
1954, 2629.00
1955, 2630.00
1956, 2630.00
1957, 2633.00
1958, 2634.00
1959, 2635.00
1960, 2633.00
1961, 2635.00
1962, 2633.00
1963, 2635.00
1964, 2637.00
1965, 2640.00
1966, 2639.00
1967, 2638.00
1968, 2638.00
1969, 2640.00
1970, 2640.00
1971, 2640.00
1972, 2641.00
1973, 2641.00
1974, 2643.00
1975, 2644.00
1976, 2644.00
1977, 2645.00
1978, 2645.00
1979, 2645.00
1980, 2646.00
1981, 2648.00
1982, 2649.00
1983, 2650.00
1984, 2651.00
1985, 2652.00
1986, 2651.00
1987, 2653.00
1988, 2655.00
1989, 2653.00
1990, 2654.00
1991, 2656.00
1992, 2656.00
1993, 2656.00
1994, 2659.00
1995, 2659.00
1996, 2659.00
1997, 2659.00
1998, 2659.00
1999, 2659.00
2000, 2662.00
2001, 2663.00
2002, 2664.00
2003, 2664.00
2004, 2664.00
2005, 2667.00
2006, 2665.00
2007, 2665.00
2008, 2669.00
2009, 2667.00
2010, 2668.00
2011, 2669.00
2012, 2669.00
2013, 2670.00
2014, 2671.00
2015, 2670.00
2016, 2671.00
2017, 2674.00
2018, 2674.00
2019, 2674.00
2020, 2674.00
2021, 2675.00
2022, 2676.00
2023, 2677.00
2024, 2676.00
2025, 2678.00
2026, 2680.00
2027, 2679.00
2028, 2680.00
2029, 2681.00
2030, 2680.00
2031, 2683.00
2032, 2683.00
2033, 2685.00
2034, 2685.00
2035, 2686.00
2036, 2686.00
2037, 2685.00
2038, 2688.00
2039, 2687.00
2040, 2687.00
2041, 2690.00
2042, 2690.00
2043, 2690.00
2044, 2694.00
2045, 2695.00
2046, 2695.00
2047, 2697.00
2048, 2696.00
2049, 2696.00
2050, 2698.00
2051, 2698.00
2052, 2699.00
2053, 2701.00
2054, 2703.00
2055, 2703.00
2056, 2705.00
2057, 2705.00
2058, 2707.00
2059, 2708.00
2060, 2708.00
2061, 2709.00
2062, 2711.00
2063, 2712.00
2064, 2711.00
2065, 2714.00
2066, 2714.00
2067, 2715.00
2068, 2714.00
2069, 2717.00
2070, 2717.00
2071, 2719.00
2072, 2720.00
2073, 2719.00
2074, 2719.00
2075, 2723.00
2076, 2723.00
2077, 2724.00
2078, 2723.00
2079, 2726.00
2080, 2726.00
2081, 2727.00
2082, 2729.00
2083, 2728.00
2084, 2729.00
2085, 2732.00
2086, 2731.00
2087, 2732.00
2088, 2730.00
2089, 2731.00
2090, 2734.00
2091, 2734.00
2092, 2735.00
2093, 2736.00
2094, 2735.00
2095, 2738.00
2096, 2737.00
2097, 2736.00
2098, 2739.00
2099, 2738.00
2100, 2739.00
2101, 2740.00
2102, 2740.00
2103, 2740.00
2104, 2741.00
2105, 2742.00
2106, 2740.00
2107, 2743.00
2108, 2742.00
2109, 2743.00
2110, 2742.00
2111, 2744.00
2112, 2743.00
2113, 2746.00
2114, 2745.00
2115, 2745.00
2116, 2745.00
2117, 2746.00
2118, 2746.00
2119, 2747.00
2120, 2748.00
2121, 2748.00
2122, 2748.00
2123, 2748.00
2124, 2748.00
2125, 2748.00
2126, 2749.00
2127, 2750.00
2128, 2749.00
2129, 2749.00
2130, 2751.00
2131, 2750.00
2132, 2753.00
2133, 2750.00
2134, 2750.00
2135, 2751.00
2136, 2750.00
2137, 2751.00
2138, 2752.00
2139, 2753.00
2140, 2755.00
2141, 2753.00
2142, 2752.00
2143, 2755.00
2144, 2756.00
2145, 2753.00
2146, 2756.00
2147, 2757.00
2148, 2756.00
2149, 2755.00
2150, 2755.00
