FW version: 24
Log Version: 3.0.3

General Info:
       Command/Macro Performed,            Timestamp,             Device ID, COM Port, UART/I2C, Test Name, Host Major, Host Minor, Host Revision, Host Git Commit
            Single_measurement,  2023_06_29_10_48_57,       Insight2_F4_xxx,    USB-C,      USB,          ,          0,          1,             1,      4031237645

Show Spectrometer Status:
l0_version, f4_version, battery_perc, battery_mVolt, accelerometer_temp, accelerometer_x, accelerometer_y, accelerometer_z, compass_temp, compass_x, compass_y, compass_z, lamp_0, lamp_1, gain_0, gain_1
        17,         24,           93,          2068,               5888,           65460,             188,           18448,            0,     65535,     65470,     65520,   2457,   2457,      1,      1

Temperature Statistic Info:
NTC AVG [°C], NTC2 AVG [°C]
      37.783,        37.468

Statistic Info:
M1:  num,      min,      max,   median,      AVG,      STD,M2:  num,      min,      max,   median,      AVG,      STD
     301,   940.00,  1086.00,   970.00,   987.67,  45.3567,     401,  1340.00,  1430.00,  1377.00,  1379.78,  29.2373,

Measurements:
Wavelength, Data Amplitude
1350, 965.00
1351, 966.00
1352, 964.00
1353, 965.00
1354, 964.00
1355, 962.00
1356, 963.00
1357, 961.00
1358, 961.00
1359, 961.00
1360, 961.00
1361, 959.00
1362, 959.00
1363, 958.00
1364, 957.00
1365, 958.00
1366, 956.00
1367, 956.00
1368, 955.00
1369, 954.00
1370, 954.00
1371, 952.00
1372, 953.00
1373, 951.00
1374, 952.00
1375, 950.00
1376, 950.00
1377, 950.00
1378, 947.00
1379, 948.00
1380, 948.00
1381, 947.00
1382, 947.00
1383, 946.00
1384, 946.00
1385, 945.00
1386, 944.00
1387, 944.00
1388, 943.00
1389, 945.00
1390, 944.00
1391, 943.00
1392, 944.00
1393, 943.00
1394, 943.00
1395, 943.00
1396, 942.00
1397, 941.00
1398, 941.00
1399, 941.00
1400, 942.00
1401, 942.00
1402, 941.00
1403, 941.00
1404, 940.00
1405, 941.00
1406, 941.00
1407, 941.00
1408, 940.00
1409, 940.00
1410, 941.00
1411, 941.00
1412, 941.00
1413, 940.00
1414, 940.00
1415, 940.00
1416, 940.00
1417, 941.00
1418, 940.00
1419, 941.00
1420, 940.00
1421, 941.00
1422, 940.00
1423, 941.00
1424, 941.00
1425, 940.00
1426, 941.00
1427, 941.00
1428, 941.00
1429, 941.00
1430, 941.00
1431, 941.00
1432, 941.00
1433, 941.00
1434, 941.00
1435, 943.00
1436, 943.00
1437, 942.00
1438, 942.00
1439, 943.00
1440, 942.00
1441, 943.00
1442, 943.00
1443, 944.00
1444, 943.00
1445, 944.00
1446, 945.00
1447, 943.00
1448, 944.00
1449, 945.00
1450, 945.00
1451, 946.00
1452, 946.00
1453, 946.00
1454, 947.00
1455, 947.00
1456, 947.00
1457, 948.00
1458, 948.00
1459, 948.00
1460, 948.00
1461, 949.00
1462, 949.00
1463, 949.00
1464, 950.00
1465, 950.00
1466, 950.00
1467, 950.00
1468, 952.00
1469, 952.00
1470, 953.00
1471, 954.00
1472, 954.00
1473, 954.00
1474, 955.00
1475, 956.00
1476, 956.00
1477, 957.00
1478, 956.00
1479, 958.00
1480, 958.00
1481, 958.00
1482, 959.00
1483, 960.00
1484, 960.00
1485, 960.00
1486, 962.00
1487, 962.00
1488, 962.00
1489, 963.00
1490, 963.00
1491, 964.00
1492, 965.00
1493, 966.00
1494, 966.00
1495, 967.00
1496, 968.00
1497, 969.00
1498, 969.00
1499, 970.00
1500, 970.00
1501, 971.00
1502, 971.00
1503, 971.00
1504, 973.00
1505, 973.00
1506, 973.00
1507, 974.00
1508, 975.00
1509, 976.00
1510, 976.00
1511, 977.00
1512, 978.00
1513, 980.00
1514, 979.00
1515, 979.00
1516, 980.00
1517, 981.00
1518, 982.00
1519, 983.00
1520, 983.00
1521, 984.00
1522, 985.00
1523, 985.00
1524, 986.00
1525, 987.00
1526, 987.00
1527, 988.00
1528, 989.00
1529, 990.00
1530, 990.00
1531, 991.00
1532, 992.00
1533, 993.00
1534, 994.00
1535, 994.00
1536, 995.00
1537, 995.00
1538, 997.00
1539, 996.00
1540, 998.00
1541, 999.00
1542, 999.00
1543, 1000.00
1544, 1001.00
1545, 1001.00
1546, 1003.00
1547, 1002.00
1548, 1003.00
1549, 1004.00
1550, 1005.00
1551, 1006.00
1552, 1006.00
1553, 1006.00
1554, 1007.00
1555, 1008.00
1556, 1009.00
1557, 1011.00
1558, 1011.00
1559, 1011.00
1560, 1013.00
1561, 1013.00
1562, 1014.00
1563, 1014.00
1564, 1015.00
1565, 1016.00
1566, 1017.00
1567, 1017.00
1568, 1019.00
1569, 1020.00
1570, 1021.00
1571, 1021.00
1572, 1021.00
1573, 1024.00
1574, 1024.00
1575, 1024.00
1576, 1026.00
1577, 1027.00
1578, 1027.00
1579, 1027.00
1580, 1028.00
1581, 1029.00
1582, 1029.00
1583, 1031.00
1584, 1031.00
1585, 1032.00
1586, 1033.00
1587, 1033.00
1588, 1034.00
1589, 1035.00
1590, 1036.00
1591, 1036.00
1592, 1037.00
1593, 1038.00
1594, 1038.00
1595, 1039.00
1596, 1040.00
1597, 1041.00
1598, 1042.00
1599, 1042.00
1600, 1043.00
1601, 1044.00
1602, 1044.00
1603, 1045.00
1604, 1046.00
1605, 1047.00
1606, 1048.00
1607, 1049.00
1608, 1050.00
1609, 1051.00
1610, 1052.00
1611, 1052.00
1612, 1054.00
1613, 1054.00
1614, 1055.00
1615, 1056.00
1616, 1057.00
1617, 1058.00
1618, 1058.00
1619, 1060.00
1620, 1061.00
1621, 1062.00
1622, 1062.00
1623, 1064.00
1624, 1065.00
1625, 1065.00
1626, 1067.00
1627, 1068.00
1628, 1068.00
1629, 1069.00
1630, 1070.00
1631, 1071.00
1632, 1072.00
1633, 1073.00
1634, 1074.00
1635, 1075.00
1636, 1075.00
1637, 1076.00
1638, 1076.00
1639, 1077.00
1640, 1077.00
1641, 1080.00
1642, 1080.00
1643, 1080.00
1644, 1081.00
1645, 1082.00
1646, 1083.00
1647, 1084.00
1648, 1084.00
1649, 1085.00
1650, 1086.00

1750, 1429.00
1751, 1427.00
1752, 1427.00
1753, 1429.00
1754, 1429.00
1755, 1429.00
1756, 1428.00
1757, 1428.00
1758, 1428.00
1759, 1427.00
1760, 1428.00
1761, 1430.00
1762, 1428.00
1763, 1428.00
1764, 1429.00
1765, 1426.00
1766, 1428.00
1767, 1427.00
1768, 1428.00
1769, 1427.00
1770, 1427.00
1771, 1427.00
1772, 1427.00
1773, 1427.00
1774, 1426.00
1775, 1427.00
1776, 1426.00
1777, 1425.00
1778, 1426.00
1779, 1425.00
1780, 1424.00
1781, 1424.00
1782, 1424.00
1783, 1422.00
1784, 1424.00
1785, 1424.00
1786, 1423.00
1787, 1423.00
1788, 1422.00
1789, 1421.00
1790, 1423.00
1791, 1422.00
1792, 1422.00
1793, 1420.00
1794, 1420.00
1795, 1420.00
1796, 1420.00
1797, 1422.00
1798, 1420.00
1799, 1419.00
1800, 1417.00
1801, 1417.00
1802, 1418.00
1803, 1420.00
1804, 1418.00
1805, 1418.00
1806, 1417.00
1807, 1416.00
1808, 1417.00
1809, 1417.00
1810, 1415.00
1811, 1416.00
1812, 1414.00
1813, 1414.00
1814, 1415.00
1815, 1415.00
1816, 1414.00
1817, 1413.00
1818, 1415.00
1819, 1412.00
1820, 1411.00
1821, 1411.00
1822, 1410.00
1823, 1410.00
1824, 1409.00
1825, 1409.00
1826, 1408.00
1827, 1406.00
1828, 1405.00
1829, 1407.00
1830, 1405.00
1831, 1403.00
1832, 1404.00
1833, 1404.00
1834, 1399.00
1835, 1401.00
1836, 1398.00
1837, 1399.00
1838, 1397.00
1839, 1396.00
1840, 1394.00
1841, 1394.00
1842, 1392.00
1843, 1390.00
1844, 1389.00
1845, 1387.00
1846, 1388.00
1847, 1386.00
1848, 1384.00
1849, 1382.00
1850, 1380.00
1851, 1380.00
1852, 1378.00
1853, 1376.00
1854, 1375.00
1855, 1374.00
1856, 1372.00
1857, 1372.00
1858, 1368.00
1859, 1368.00
1860, 1366.00
1861, 1367.00
1862, 1366.00
1863, 1365.00
1864, 1364.00
1865, 1361.00
1866, 1362.00
1867, 1359.00
1868, 1359.00
1869, 1356.00
1870, 1358.00
1871, 1357.00
1872, 1357.00
1873, 1356.00
1874, 1354.00
1875, 1354.00
1876, 1352.00
1877, 1351.00
1878, 1353.00
1879, 1349.00
1880, 1352.00
1881, 1349.00
1882, 1351.00
1883, 1349.00
1884, 1348.00
1885, 1348.00
1886, 1349.00
1887, 1348.00
1888, 1350.00
1889, 1347.00
1890, 1347.00
1891, 1348.00
1892, 1345.00
1893, 1346.00
1894, 1347.00
1895, 1345.00
1896, 1344.00
1897, 1344.00
1898, 1344.00
1899, 1344.00
1900, 1344.00
1901, 1344.00
1902, 1345.00
1903, 1345.00
1904, 1343.00
1905, 1343.00
1906, 1342.00
1907, 1341.00
1908, 1342.00
1909, 1343.00
1910, 1341.00
1911, 1341.00
1912, 1342.00
1913, 1341.00
1914, 1343.00
1915, 1342.00
1916, 1343.00
1917, 1342.00
1918, 1341.00
1919, 1341.00
1920, 1340.00
1921, 1342.00
1922, 1342.00
1923, 1341.00
1924, 1341.00
1925, 1343.00
1926, 1341.00
1927, 1341.00
1928, 1343.00
1929, 1341.00
1930, 1341.00
1931, 1340.00
1932, 1341.00
1933, 1342.00
1934, 1341.00
1935, 1341.00
1936, 1340.00
1937, 1341.00
1938, 1342.00
1939, 1341.00
1940, 1341.00
1941, 1343.00
1942, 1342.00
1943, 1343.00
1944, 1343.00
1945, 1345.00
1946, 1342.00
1947, 1343.00
1948, 1343.00
1949, 1345.00
1950, 1344.00
1951, 1343.00
1952, 1344.00
1953, 1345.00
1954, 1346.00
1955, 1344.00
1956, 1345.00
1957, 1345.00
1958, 1344.00
1959, 1346.00
1960, 1344.00
1961, 1344.00
1962, 1346.00
1963, 1346.00
1964, 1346.00
1965, 1346.00
1966, 1347.00
1967, 1349.00
1968, 1348.00
1969, 1350.00
1970, 1349.00
1971, 1349.00
1972, 1348.00
1973, 1349.00
1974, 1350.00
1975, 1350.00
1976, 1352.00
1977, 1348.00
1978, 1350.00
1979, 1351.00
1980, 1351.00
1981, 1350.00
1982, 1350.00
1983, 1352.00
1984, 1352.00
1985, 1351.00
1986, 1353.00
1987, 1353.00
1988, 1353.00
1989, 1353.00
1990, 1354.00
1991, 1355.00
1992, 1354.00
1993, 1355.00
1994, 1356.00
1995, 1355.00
1996, 1357.00
1997, 1357.00
1998, 1356.00
1999, 1358.00
2000, 1358.00
2001, 1360.00
2002, 1358.00
2003, 1359.00
2004, 1357.00
2005, 1359.00
2006, 1357.00
2007, 1359.00
2008, 1359.00
2009, 1360.00
2010, 1361.00
2011, 1360.00
2012, 1361.00
2013, 1362.00
2014, 1361.00
2015, 1363.00
2016, 1361.00
2017, 1362.00
2018, 1363.00
2019, 1362.00
2020, 1363.00
2021, 1364.00
2022, 1365.00
2023, 1364.00
2024, 1364.00
2025, 1366.00
2026, 1365.00
2027, 1367.00
2028, 1366.00
2029, 1366.00
2030, 1366.00
2031, 1368.00
2032, 1367.00
2033, 1367.00
2034, 1369.00
2035, 1369.00
2036, 1370.00
2037, 1370.00
2038, 1372.00
2039, 1369.00
2040, 1372.00
2041, 1373.00
2042, 1373.00
2043, 1373.00
2044, 1373.00
2045, 1373.00
2046, 1373.00
2047, 1375.00
2048, 1374.00
2049, 1375.00
2050, 1375.00
2051, 1377.00
2052, 1375.00
2053, 1376.00
2054, 1379.00
2055, 1377.00
2056, 1378.00
2057, 1380.00
2058, 1379.00
2059, 1382.00
2060, 1381.00
2061, 1383.00
2062, 1381.00
2063, 1382.00
2064, 1383.00
2065, 1384.00
2066, 1383.00
2067, 1384.00
2068, 1385.00
2069, 1385.00
2070, 1386.00
2071, 1386.00
2072, 1388.00
2073, 1387.00
2074, 1387.00
2075, 1388.00
2076, 1389.00
2077, 1389.00
2078, 1389.00
2079, 1389.00
2080, 1390.00
2081, 1389.00
2082, 1392.00
2083, 1392.00
2084, 1392.00
2085, 1392.00
2086, 1394.00
2087, 1391.00
2088, 1394.00
2089, 1394.00
2090, 1395.00
2091, 1396.00
2092, 1395.00
2093, 1397.00
2094, 1397.00
2095, 1397.00
2096, 1396.00
2097, 1399.00
2098, 1398.00
2099, 1399.00
2100, 1399.00
2101, 1401.00
2102, 1401.00
2103, 1399.00
2104, 1401.00
2105, 1400.00
2106, 1399.00
2107, 1400.00
2108, 1400.00
2109, 1401.00
2110, 1402.00
2111, 1401.00
2112, 1404.00
2113, 1403.00
2114, 1402.00
2115, 1402.00
2116, 1403.00
2117, 1400.00
2118, 1405.00
2119, 1404.00
2120, 1405.00
2121, 1405.00
2122, 1404.00
2123, 1405.00
2124, 1405.00
2125, 1404.00
2126, 1405.00
2127, 1406.00
2128, 1404.00
2129, 1407.00
2130, 1405.00
2131, 1406.00
2132, 1407.00
2133, 1407.00
2134, 1407.00
2135, 1407.00
2136, 1408.00
2137, 1408.00
2138, 1407.00
2139, 1409.00
2140, 1408.00
2141, 1409.00
2142, 1408.00
2143, 1407.00
2144, 1409.00
2145, 1409.00
2146, 1409.00
2147, 1409.00
2148, 1408.00
2149, 1409.00
2150, 1410.00
