FW version: 24
Log Version: 3.0.3

General Info:
       Command/Macro Performed,            Timestamp,             Device ID, COM Port, UART/I2C, Test Name, Host Major, Host Minor, Host Revision, Host Git Commit
            Single_measurement,  2023_07_04_11_15_23,       Insight2_F4_xxx,    USB-C,      USB,          ,          0,          1,             1,      4031237645

Show Spectrometer Status:
l0_version, f4_version, battery_perc, battery_mVolt, accelerometer_temp, accelerometer_x, accelerometer_y, accelerometer_z, compass_temp, compass_x, compass_y, compass_z, lamp_0, lamp_1, gain_0, gain_1
        17,         24,           23,          1856,               6096,           64772,            2300,           19236,            0,     65391,     65533,     19319,   3276,   3276,      1,      1

Temperature Statistic Info:
NTC AVG [°C], NTC2 AVG [°C]
      38.245,        37.868

Statistic Info:
M1:  num,      min,      max,   median,      AVG,      STD,M2:  num,      min,      max,   median,      AVG,      STD
     301,  2158.00,  2489.00,  2225.00,  2266.80, 102.7314,     401,  2775.00,  2978.00,  2856.00,  2861.94,  65.9557,

Measurements:
Wavelength, Data Amplitude
1350, 2223.00
1351, 2222.00
1352, 2221.00
1353, 2220.00
1354, 2218.00
1355, 2216.00
1356, 2216.00
1357, 2214.00
1358, 2213.00
1359, 2211.00
1360, 2211.00
1361, 2209.00
1362, 2208.00
1363, 2206.00
1364, 2204.00
1365, 2203.00
1366, 2199.00
1367, 2199.00
1368, 2197.00
1369, 2195.00
1370, 2194.00
1371, 2192.00
1372, 2191.00
1373, 2188.00
1374, 2187.00
1375, 2186.00
1376, 2185.00
1377, 2182.00
1378, 2180.00
1379, 2179.00
1380, 2178.00
1381, 2176.00
1382, 2176.00
1383, 2174.00
1384, 2173.00
1385, 2173.00
1386, 2171.00
1387, 2171.00
1388, 2170.00
1389, 2169.00
1390, 2169.00
1391, 2169.00
1392, 2168.00
1393, 2167.00
1394, 2166.00
1395, 2165.00
1396, 2166.00
1397, 2164.00
1398, 2165.00
1399, 2163.00
1400, 2164.00
1401, 2162.00
1402, 2163.00
1403, 2162.00
1404, 2161.00
1405, 2162.00
1406, 2161.00
1407, 2161.00
1408, 2160.00
1409, 2161.00
1410, 2161.00
1411, 2159.00
1412, 2160.00
1413, 2160.00
1414, 2159.00
1415, 2160.00
1416, 2158.00
1417, 2159.00
1418, 2159.00
1419, 2159.00
1420, 2158.00
1421, 2158.00
1422, 2159.00
1423, 2159.00
1424, 2159.00
1425, 2159.00
1426, 2159.00
1427, 2160.00
1428, 2160.00
1429, 2160.00
1430, 2160.00
1431, 2159.00
1432, 2161.00
1433, 2161.00
1434, 2161.00
1435, 2162.00
1436, 2162.00
1437, 2163.00
1438, 2163.00
1439, 2164.00
1440, 2164.00
1441, 2165.00
1442, 2164.00
1443, 2166.00
1444, 2166.00
1445, 2166.00
1446, 2168.00
1447, 2168.00
1448, 2170.00
1449, 2169.00
1450, 2169.00
1451, 2170.00
1452, 2172.00
1453, 2172.00
1454, 2173.00
1455, 2173.00
1456, 2174.00
1457, 2175.00
1458, 2177.00
1459, 2177.00
1460, 2176.00
1461, 2177.00
1462, 2179.00
1463, 2179.00
1464, 2181.00
1465, 2181.00
1466, 2183.00
1467, 2182.00
1468, 2184.00
1469, 2185.00
1470, 2186.00
1471, 2189.00
1472, 2188.00
1473, 2189.00
1474, 2191.00
1475, 2191.00
1476, 2193.00
1477, 2195.00
1478, 2196.00
1479, 2198.00
1480, 2197.00
1481, 2200.00
1482, 2200.00
1483, 2202.00
1484, 2204.00
1485, 2204.00
1486, 2206.00
1487, 2208.00
1488, 2208.00
1489, 2209.00
1490, 2210.00
1491, 2212.00
1492, 2214.00
1493, 2215.00
1494, 2217.00
1495, 2218.00
1496, 2217.00
1497, 2221.00
1498, 2221.00
1499, 2223.00
1500, 2225.00
1501, 2226.00
1502, 2227.00
1503, 2229.00
1504, 2229.00
1505, 2232.00
1506, 2232.00
1507, 2235.00
1508, 2235.00
1509, 2237.00
1510, 2239.00
1511, 2240.00
1512, 2241.00
1513, 2243.00
1514, 2244.00
1515, 2246.00
1516, 2247.00
1517, 2250.00
1518, 2251.00
1519, 2252.00
1520, 2254.00
1521, 2255.00
1522, 2257.00
1523, 2258.00
1524, 2260.00
1525, 2262.00
1526, 2264.00
1527, 2265.00
1528, 2267.00
1529, 2268.00
1530, 2270.00
1531, 2274.00
1532, 2273.00
1533, 2276.00
1534, 2277.00
1535, 2279.00
1536, 2281.00
1537, 2282.00
1538, 2283.00
1539, 2284.00
1540, 2287.00
1541, 2288.00
1542, 2290.00
1543, 2293.00
1544, 2295.00
1545, 2296.00
1546, 2298.00
1547, 2299.00
1548, 2300.00
1549, 2302.00
1550, 2303.00
1551, 2305.00
1552, 2307.00
1553, 2310.00
1554, 2311.00
1555, 2313.00
1556, 2315.00
1557, 2317.00
1558, 2318.00
1559, 2321.00
1560, 2323.00
1561, 2324.00
1562, 2326.00
1563, 2328.00
1564, 2330.00
1565, 2331.00
1566, 2333.00
1567, 2336.00
1568, 2337.00
1569, 2340.00
1570, 2342.00
1571, 2344.00
1572, 2346.00
1573, 2348.00
1574, 2350.00
1575, 2350.00
1576, 2353.00
1577, 2356.00
1578, 2358.00
1579, 2359.00
1580, 2360.00
1581, 2362.00
1582, 2363.00
1583, 2365.00
1584, 2367.00
1585, 2369.00
1586, 2370.00
1587, 2371.00
1588, 2372.00
1589, 2375.00
1590, 2376.00
1591, 2379.00
1592, 2379.00
1593, 2382.00
1594, 2383.00
1595, 2385.00
1596, 2387.00
1597, 2389.00
1598, 2390.00
1599, 2392.00
1600, 2394.00
1601, 2395.00
1602, 2397.00
1603, 2398.00
1604, 2401.00
1605, 2403.00
1606, 2404.00
1607, 2407.00
1608, 2408.00
1609, 2410.00
1610, 2413.00
1611, 2414.00
1612, 2417.00
1613, 2420.00
1614, 2421.00
1615, 2423.00
1616, 2425.00
1617, 2427.00
1618, 2429.00
1619, 2432.00
1620, 2434.00
1621, 2435.00
1622, 2437.00
1623, 2439.00
1624, 2441.00
1625, 2444.00
1626, 2445.00
1627, 2447.00
1628, 2450.00
1629, 2451.00
1630, 2452.00
1631, 2455.00
1632, 2457.00
1633, 2459.00
1634, 2461.00
1635, 2463.00
1636, 2465.00
1637, 2467.00
1638, 2467.00
1639, 2470.00
1640, 2471.00
1641, 2473.00
1642, 2474.00
1643, 2476.00
1644, 2477.00
1645, 2479.00
1646, 2481.00
1647, 2483.00
1648, 2485.00
1649, 2487.00
1650, 2489.00

1750, 2976.00
1751, 2975.00
1752, 2976.00
1753, 2976.00
1754, 2977.00
1755, 2975.00
1756, 2976.00
1757, 2978.00
1758, 2977.00
1759, 2977.00
1760, 2973.00
1761, 2975.00
1762, 2976.00
1763, 2976.00
1764, 2976.00
1765, 2975.00
1766, 2975.00
1767, 2975.00
1768, 2974.00
1769, 2971.00
1770, 2973.00
1771, 2970.00
1772, 2971.00
1773, 2970.00
1774, 2971.00
1775, 2970.00
1776, 2971.00
1777, 2969.00
1778, 2969.00
1779, 2970.00
1780, 2968.00
1781, 2965.00
1782, 2966.00
1783, 2967.00
1784, 2965.00
1785, 2963.00
1786, 2964.00
1787, 2963.00
1788, 2962.00
1789, 2959.00
1790, 2961.00
1791, 2960.00
1792, 2960.00
1793, 2959.00
1794, 2958.00
1795, 2959.00
1796, 2956.00
1797, 2956.00
1798, 2953.00
1799, 2955.00
1800, 2954.00
1801, 2952.00
1802, 2953.00
1803, 2952.00
1804, 2951.00
1805, 2948.00
1806, 2949.00
1807, 2951.00
1808, 2950.00
1809, 2947.00
1810, 2947.00
1811, 2945.00
1812, 2947.00
1813, 2945.00
1814, 2943.00
1815, 2942.00
1816, 2941.00
1817, 2941.00
1818, 2940.00
1819, 2938.00
1820, 2938.00
1821, 2935.00
1822, 2935.00
1823, 2933.00
1824, 2932.00
1825, 2931.00
1826, 2928.00
1827, 2927.00
1828, 2924.00
1829, 2923.00
1830, 2922.00
1831, 2921.00
1832, 2917.00
1833, 2915.00
1834, 2911.00
1835, 2910.00
1836, 2908.00
1837, 2905.00
1838, 2904.00
1839, 2899.00
1840, 2896.00
1841, 2897.00
1842, 2891.00
1843, 2889.00
1844, 2886.00
1845, 2882.00
1846, 2880.00
1847, 2875.00
1848, 2871.00
1849, 2869.00
1850, 2864.00
1851, 2862.00
1852, 2860.00
1853, 2859.00
1854, 2854.00
1855, 2851.00
1856, 2845.00
1857, 2846.00
1858, 2842.00
1859, 2838.00
1860, 2835.00
1861, 2834.00
1862, 2830.00
1863, 2828.00
1864, 2825.00
1865, 2824.00
1866, 2824.00
1867, 2818.00
1868, 2818.00
1869, 2814.00
1870, 2812.00
1871, 2811.00
1872, 2808.00
1873, 2807.00
1874, 2805.00
1875, 2804.00
1876, 2802.00
1877, 2802.00
1878, 2801.00
1879, 2799.00
1880, 2797.00
1881, 2797.00
1882, 2797.00
1883, 2796.00
1884, 2794.00
1885, 2792.00
1886, 2793.00
1887, 2790.00
1888, 2790.00
1889, 2790.00
1890, 2788.00
1891, 2789.00
1892, 2787.00
1893, 2787.00
1894, 2787.00
1895, 2786.00
1896, 2784.00
1897, 2785.00
1898, 2782.00
1899, 2783.00
1900, 2783.00
1901, 2781.00
1902, 2781.00
1903, 2782.00
1904, 2782.00
1905, 2783.00
1906, 2782.00
1907, 2782.00
1908, 2782.00
1909, 2781.00
1910, 2778.00
1911, 2778.00
1912, 2778.00
1913, 2776.00
1914, 2777.00
1915, 2777.00
1916, 2775.00
1917, 2777.00
1918, 2779.00
1919, 2777.00
1920, 2777.00
1921, 2778.00
1922, 2776.00
1923, 2779.00
1924, 2775.00
1925, 2776.00
1926, 2777.00
1927, 2778.00
1928, 2777.00
1929, 2776.00
1930, 2775.00
1931, 2776.00
1932, 2775.00
1933, 2778.00
1934, 2777.00
1935, 2778.00
1936, 2779.00
1937, 2777.00
1938, 2777.00
1939, 2775.00
1940, 2778.00
1941, 2779.00
1942, 2779.00
1943, 2781.00
1944, 2779.00
1945, 2779.00
1946, 2781.00
1947, 2779.00
1948, 2777.00
1949, 2779.00
1950, 2782.00
1951, 2781.00
1952, 2781.00
1953, 2782.00
1954, 2781.00
1955, 2782.00
1956, 2784.00
1957, 2782.00
1958, 2785.00
1959, 2785.00
1960, 2786.00
1961, 2785.00
1962, 2786.00
1963, 2788.00
1964, 2787.00
1965, 2790.00
1966, 2787.00
1967, 2789.00
1968, 2792.00
1969, 2792.00
1970, 2790.00
1971, 2790.00
1972, 2791.00
1973, 2793.00
1974, 2793.00
1975, 2794.00
1976, 2795.00
1977, 2796.00
1978, 2796.00
1979, 2796.00
1980, 2797.00
1981, 2799.00
1982, 2799.00
1983, 2799.00
1984, 2800.00
1985, 2801.00
1986, 2799.00
1987, 2804.00
1988, 2804.00
1989, 2802.00
1990, 2806.00
1991, 2803.00
1992, 2805.00
1993, 2806.00
1994, 2807.00
1995, 2808.00
1996, 2810.00
1997, 2809.00
1998, 2810.00
1999, 2812.00
2000, 2811.00
2001, 2811.00
2002, 2815.00
2003, 2813.00
2004, 2817.00
2005, 2815.00
2006, 2815.00
2007, 2815.00
2008, 2817.00
2009, 2818.00
2010, 2818.00
2011, 2818.00
2012, 2821.00
2013, 2821.00
2014, 2818.00
2015, 2822.00
2016, 2822.00
2017, 2822.00
2018, 2824.00
2019, 2823.00
2020, 2823.00
2021, 2827.00
2022, 2825.00
2023, 2828.00
2024, 2828.00
2025, 2830.00
2026, 2829.00
2027, 2830.00
2028, 2830.00
2029, 2831.00
2030, 2832.00
2031, 2831.00
2032, 2832.00
2033, 2833.00
2034, 2836.00
2035, 2835.00
2036, 2835.00
2037, 2837.00
2038, 2839.00
2039, 2841.00
2040, 2842.00
2041, 2840.00
2042, 2843.00
2043, 2844.00
2044, 2846.00
2045, 2845.00
2046, 2847.00
2047, 2847.00
2048, 2848.00
2049, 2851.00
2050, 2851.00
2051, 2852.00
2052, 2854.00
2053, 2855.00
2054, 2856.00
2055, 2856.00
2056, 2857.00
2057, 2857.00
2058, 2858.00
2059, 2858.00
2060, 2862.00
2061, 2863.00
2062, 2864.00
2063, 2865.00
2064, 2866.00
2065, 2866.00
2066, 2867.00
2067, 2870.00
2068, 2870.00
2069, 2871.00
2070, 2873.00
2071, 2873.00
2072, 2875.00
2073, 2875.00
2074, 2877.00
2075, 2878.00
2076, 2879.00
2077, 2879.00
2078, 2882.00
2079, 2882.00
2080, 2881.00
2081, 2883.00
2082, 2884.00
2083, 2885.00
2084, 2887.00
2085, 2886.00
2086, 2888.00
2087, 2889.00
2088, 2891.00
2089, 2891.00
2090, 2891.00
2091, 2893.00
2092, 2893.00
2093, 2893.00
2094, 2894.00
2095, 2895.00
2096, 2897.00
2097, 2897.00
2098, 2896.00
2099, 2898.00
2100, 2900.00
2101, 2901.00
2102, 2902.00
2103, 2902.00
2104, 2902.00
2105, 2905.00
2106, 2902.00
2107, 2903.00
2108, 2904.00
2109, 2903.00
2110, 2905.00
2111, 2905.00
2112, 2907.00
2113, 2908.00
2114, 2906.00
2115, 2907.00
2116, 2909.00
2117, 2908.00
2118, 2910.00
2119, 2909.00
2120, 2910.00
2121, 2912.00
2122, 2912.00
2123, 2913.00
2124, 2912.00
2125, 2911.00
2126, 2912.00
2127, 2914.00
2128, 2915.00
2129, 2915.00
2130, 2915.00
2131, 2914.00
2132, 2916.00
2133, 2916.00
2134, 2916.00
2135, 2918.00
2136, 2917.00
2137, 2918.00
2138, 2919.00
2139, 2917.00
2140, 2919.00
2141, 2920.00
2142, 2919.00
2143, 2919.00
2144, 2920.00
2145, 2920.00
2146, 2920.00
2147, 2922.00
2148, 2923.00
2149, 2922.00
2150, 2921.00
