FW version: 24
Log Version: 3.0.3

General Info:
       Command/Macro Performed,            Timestamp,             Device ID, COM Port, UART/I2C, Test Name, Host Major, Host Minor, Host Revision, Host Git Commit
            Single_measurement,  2023_07_04_11_09_47,       Insight2_F4_xxx,    USB-C,      USB,          ,          0,          1,             1,      4031237645

Show Spectrometer Status:
l0_version, f4_version, battery_perc, battery_mVolt, accelerometer_temp, accelerometer_x, accelerometer_y, accelerometer_z, compass_temp, compass_x, compass_y, compass_z, lamp_0, lamp_1, gain_0, gain_1
        17,         24,           20,          1852,               5968,           64684,            2272,           19180,            0,     65534,     65510,     19180,   2457,   2457,      1,      1

Temperature Statistic Info:
NTC AVG [°C], NTC2 AVG [°C]
      37.554,        37.208

Statistic Info:
M1:  num,      min,      max,   median,      AVG,      STD,M2:  num,      min,      max,   median,      AVG,      STD
     301,   995.00,  1141.00,  1027.00,  1043.19,  45.2003,     401,  1411.00,  1503.00,  1451.00,  1453.30,  30.1548,

Measurements:
Wavelength, Data Amplitude
1350, 1019.00
1351, 1018.00
1352, 1018.00
1353, 1017.00
1354, 1017.00
1355, 1016.00
1356, 1017.00
1357, 1015.00
1358, 1015.00
1359, 1014.00
1360, 1014.00
1361, 1012.00
1362, 1013.00
1363, 1012.00
1364, 1013.00
1365, 1011.00
1366, 1010.00
1367, 1010.00
1368, 1010.00
1369, 1008.00
1370, 1009.00
1371, 1008.00
1372, 1006.00
1373, 1006.00
1374, 1006.00
1375, 1005.00
1376, 1005.00
1377, 1004.00
1378, 1003.00
1379, 1003.00
1380, 1003.00
1381, 1002.00
1382, 1002.00
1383, 1001.00
1384, 1001.00
1385, 1001.00
1386, 1001.00
1387, 999.00
1388, 999.00
1389, 999.00
1390, 999.00
1391, 998.00
1392, 999.00
1393, 998.00
1394, 997.00
1395, 997.00
1396, 998.00
1397, 996.00
1398, 997.00
1399, 996.00
1400, 997.00
1401, 997.00
1402, 997.00
1403, 997.00
1404, 998.00
1405, 996.00
1406, 996.00
1407, 996.00
1408, 995.00
1409, 996.00
1410, 996.00
1411, 996.00
1412, 996.00
1413, 996.00
1414, 996.00
1415, 995.00
1416, 995.00
1417, 997.00
1418, 996.00
1419, 996.00
1420, 996.00
1421, 996.00
1422, 996.00
1423, 996.00
1424, 996.00
1425, 995.00
1426, 996.00
1427, 997.00
1428, 996.00
1429, 996.00
1430, 997.00
1431, 997.00
1432, 997.00
1433, 997.00
1434, 997.00
1435, 997.00
1436, 998.00
1437, 997.00
1438, 998.00
1439, 999.00
1440, 998.00
1441, 1000.00
1442, 999.00
1443, 999.00
1444, 1000.00
1445, 1000.00
1446, 1000.00
1447, 1000.00
1448, 1001.00
1449, 1001.00
1450, 1001.00
1451, 1001.00
1452, 1003.00
1453, 1002.00
1454, 1003.00
1455, 1003.00
1456, 1003.00
1457, 1003.00
1458, 1004.00
1459, 1003.00
1460, 1005.00
1461, 1004.00
1462, 1005.00
1463, 1006.00
1464, 1007.00
1465, 1007.00
1466, 1007.00
1467, 1008.00
1468, 1008.00
1469, 1007.00
1470, 1009.00
1471, 1008.00
1472, 1010.00
1473, 1010.00
1474, 1011.00
1475, 1010.00
1476, 1012.00
1477, 1012.00
1478, 1013.00
1479, 1014.00
1480, 1014.00
1481, 1014.00
1482, 1015.00
1483, 1015.00
1484, 1017.00
1485, 1017.00
1486, 1018.00
1487, 1018.00
1488, 1019.00
1489, 1019.00
1490, 1021.00
1491, 1020.00
1492, 1022.00
1493, 1021.00
1494, 1021.00
1495, 1022.00
1496, 1024.00
1497, 1025.00
1498, 1025.00
1499, 1026.00
1500, 1027.00
1501, 1028.00
1502, 1028.00
1503, 1028.00
1504, 1029.00
1505, 1029.00
1506, 1031.00
1507, 1031.00
1508, 1031.00
1509, 1032.00
1510, 1032.00
1511, 1034.00
1512, 1034.00
1513, 1035.00
1514, 1035.00
1515, 1036.00
1516, 1038.00
1517, 1037.00
1518, 1037.00
1519, 1040.00
1520, 1040.00
1521, 1041.00
1522, 1041.00
1523, 1041.00
1524, 1042.00
1525, 1044.00
1526, 1044.00
1527, 1044.00
1528, 1045.00
1529, 1045.00
1530, 1047.00
1531, 1048.00
1532, 1048.00
1533, 1049.00
1534, 1050.00
1535, 1050.00
1536, 1051.00
1537, 1051.00
1538, 1052.00
1539, 1053.00
1540, 1054.00
1541, 1056.00
1542, 1056.00
1543, 1057.00
1544, 1056.00
1545, 1058.00
1546, 1059.00
1547, 1060.00
1548, 1060.00
1549, 1061.00
1550, 1061.00
1551, 1061.00
1552, 1063.00
1553, 1063.00
1554, 1063.00
1555, 1065.00
1556, 1065.00
1557, 1067.00
1558, 1067.00
1559, 1067.00
1560, 1069.00
1561, 1069.00
1562, 1070.00
1563, 1071.00
1564, 1072.00
1565, 1072.00
1566, 1073.00
1567, 1074.00
1568, 1075.00
1569, 1075.00
1570, 1076.00
1571, 1078.00
1572, 1077.00
1573, 1079.00
1574, 1079.00
1575, 1079.00
1576, 1081.00
1577, 1081.00
1578, 1083.00
1579, 1083.00
1580, 1084.00
1581, 1084.00
1582, 1085.00
1583, 1086.00
1584, 1087.00
1585, 1088.00
1586, 1088.00
1587, 1089.00
1588, 1090.00
1589, 1091.00
1590, 1090.00
1591, 1091.00
1592, 1092.00
1593, 1092.00
1594, 1093.00
1595, 1095.00
1596, 1095.00
1597, 1096.00
1598, 1098.00
1599, 1097.00
1600, 1098.00
1601, 1100.00
1602, 1099.00
1603, 1100.00
1604, 1100.00
1605, 1101.00
1606, 1103.00
1607, 1104.00
1608, 1105.00
1609, 1106.00
1610, 1107.00
1611, 1107.00
1612, 1108.00
1613, 1110.00
1614, 1111.00
1615, 1111.00
1616, 1112.00
1617, 1113.00
1618, 1114.00
1619, 1115.00
1620, 1117.00
1621, 1118.00
1622, 1117.00
1623, 1119.00
1624, 1118.00
1625, 1121.00
1626, 1122.00
1627, 1122.00
1628, 1123.00
1629, 1124.00
1630, 1125.00
1631, 1126.00
1632, 1127.00
1633, 1127.00
1634, 1128.00
1635, 1129.00
1636, 1130.00
1637, 1131.00
1638, 1131.00
1639, 1132.00
1640, 1133.00
1641, 1133.00
1642, 1135.00
1643, 1136.00
1644, 1135.00
1645, 1136.00
1646, 1137.00
1647, 1138.00
1648, 1138.00
1649, 1139.00
1650, 1141.00

1750, 1502.00
1751, 1502.00
1752, 1501.00
1753, 1502.00
1754, 1500.00
1755, 1502.00
1756, 1501.00
1757, 1501.00
1758, 1502.00
1759, 1503.00
1760, 1502.00
1761, 1501.00
1762, 1501.00
1763, 1503.00
1764, 1503.00
1765, 1502.00
1766, 1502.00
1767, 1502.00
1768, 1503.00
1769, 1502.00
1770, 1502.00
1771, 1500.00
1772, 1497.00
1773, 1501.00
1774, 1502.00
1775, 1499.00
1776, 1502.00
1777, 1500.00
1778, 1500.00
1779, 1498.00
1780, 1497.00
1781, 1497.00
1782, 1498.00
1783, 1496.00
1784, 1499.00
1785, 1497.00
1786, 1497.00
1787, 1497.00
1788, 1497.00
1789, 1499.00
1790, 1496.00
1791, 1494.00
1792, 1496.00
1793, 1495.00
1794, 1494.00
1795, 1495.00
1796, 1493.00
1797, 1494.00
1798, 1494.00
1799, 1494.00
1800, 1491.00
1801, 1492.00
1802, 1492.00
1803, 1492.00
1804, 1491.00
1805, 1493.00
1806, 1492.00
1807, 1490.00
1808, 1491.00
1809, 1491.00
1810, 1488.00
1811, 1490.00
1812, 1490.00
1813, 1489.00
1814, 1489.00
1815, 1487.00
1816, 1487.00
1817, 1486.00
1818, 1486.00
1819, 1486.00
1820, 1486.00
1821, 1485.00
1822, 1486.00
1823, 1483.00
1824, 1484.00
1825, 1481.00
1826, 1484.00
1827, 1482.00
1828, 1480.00
1829, 1478.00
1830, 1479.00
1831, 1479.00
1832, 1477.00
1833, 1477.00
1834, 1475.00
1835, 1473.00
1836, 1472.00
1837, 1472.00
1838, 1470.00
1839, 1469.00
1840, 1470.00
1841, 1467.00
1842, 1466.00
1843, 1463.00
1844, 1463.00
1845, 1461.00
1846, 1461.00
1847, 1458.00
1848, 1458.00
1849, 1456.00
1850, 1456.00
1851, 1453.00
1852, 1452.00
1853, 1451.00
1854, 1448.00
1855, 1447.00
1856, 1447.00
1857, 1446.00
1858, 1443.00
1859, 1442.00
1860, 1439.00
1861, 1437.00
1862, 1439.00
1863, 1436.00
1864, 1435.00
1865, 1435.00
1866, 1433.00
1867, 1431.00
1868, 1432.00
1869, 1431.00
1870, 1430.00
1871, 1426.00
1872, 1429.00
1873, 1429.00
1874, 1426.00
1875, 1426.00
1876, 1426.00
1877, 1424.00
1878, 1424.00
1879, 1423.00
1880, 1424.00
1881, 1422.00
1882, 1421.00
1883, 1421.00
1884, 1421.00
1885, 1421.00
1886, 1421.00
1887, 1420.00
1888, 1420.00
1889, 1418.00
1890, 1419.00
1891, 1417.00
1892, 1419.00
1893, 1418.00
1894, 1418.00
1895, 1417.00
1896, 1416.00
1897, 1416.00
1898, 1417.00
1899, 1416.00
1900, 1416.00
1901, 1415.00
1902, 1416.00
1903, 1415.00
1904, 1416.00
1905, 1414.00
1906, 1415.00
1907, 1413.00
1908, 1413.00
1909, 1414.00
1910, 1414.00
1911, 1416.00
1912, 1416.00
1913, 1414.00
1914, 1413.00
1915, 1414.00
1916, 1412.00
1917, 1412.00
1918, 1415.00
1919, 1413.00
1920, 1414.00
1921, 1412.00
1922, 1412.00
1923, 1414.00
1924, 1412.00
1925, 1412.00
1926, 1413.00
1927, 1412.00
1928, 1412.00
1929, 1413.00
1930, 1414.00
1931, 1413.00
1932, 1414.00
1933, 1413.00
1934, 1415.00
1935, 1411.00
1936, 1413.00
1937, 1414.00
1938, 1413.00
1939, 1415.00
1940, 1416.00
1941, 1413.00
1942, 1413.00
1943, 1413.00
1944, 1416.00
1945, 1415.00
1946, 1414.00
1947, 1414.00
1948, 1416.00
1949, 1415.00
1950, 1415.00
1951, 1416.00
1952, 1415.00
1953, 1415.00
1954, 1417.00
1955, 1417.00
1956, 1417.00
1957, 1417.00
1958, 1416.00
1959, 1417.00
1960, 1417.00
1961, 1418.00
1962, 1419.00
1963, 1417.00
1964, 1418.00
1965, 1418.00
1966, 1421.00
1967, 1420.00
1968, 1420.00
1969, 1420.00
1970, 1421.00
1971, 1421.00
1972, 1419.00
1973, 1422.00
1974, 1420.00
1975, 1421.00
1976, 1422.00
1977, 1422.00
1978, 1425.00
1979, 1424.00
1980, 1422.00
1981, 1424.00
1982, 1425.00
1983, 1425.00
1984, 1425.00
1985, 1426.00
1986, 1426.00
1987, 1428.00
1988, 1427.00
1989, 1427.00
1990, 1427.00
1991, 1429.00
1992, 1429.00
1993, 1429.00
1994, 1429.00
1995, 1428.00
1996, 1428.00
1997, 1429.00
1998, 1431.00
1999, 1431.00
2000, 1429.00
2001, 1430.00
2002, 1431.00
2003, 1431.00
2004, 1431.00
2005, 1432.00
2006, 1433.00
2007, 1434.00
2008, 1434.00
2009, 1433.00
2010, 1435.00
2011, 1435.00
2012, 1433.00
2013, 1433.00
2014, 1435.00
2015, 1435.00
2016, 1436.00
2017, 1436.00
2018, 1436.00
2019, 1437.00
2020, 1438.00
2021, 1438.00
2022, 1436.00
2023, 1439.00
2024, 1440.00
2025, 1438.00
2026, 1439.00
2027, 1441.00
2028, 1439.00
2029, 1440.00
2030, 1442.00
2031, 1442.00
2032, 1441.00
2033, 1441.00
2034, 1441.00
2035, 1443.00
2036, 1443.00
2037, 1443.00
2038, 1444.00
2039, 1445.00
2040, 1446.00
2041, 1446.00
2042, 1444.00
2043, 1446.00
2044, 1446.00
2045, 1446.00
2046, 1449.00
2047, 1448.00
2048, 1448.00
2049, 1450.00
2050, 1450.00
2051, 1449.00
2052, 1450.00
2053, 1450.00
2054, 1451.00
2055, 1453.00
2056, 1451.00
2057, 1455.00
2058, 1455.00
2059, 1454.00
2060, 1457.00
2061, 1455.00
2062, 1456.00
2063, 1457.00
2064, 1457.00
2065, 1458.00
2066, 1458.00
2067, 1459.00
2068, 1459.00
2069, 1461.00
2070, 1461.00
2071, 1461.00
2072, 1462.00
2073, 1463.00
2074, 1463.00
2075, 1463.00
2076, 1463.00
2077, 1464.00
2078, 1465.00
2079, 1465.00
2080, 1465.00
2081, 1466.00
2082, 1467.00
2083, 1466.00
2084, 1468.00
2085, 1470.00
2086, 1469.00
2087, 1469.00
2088, 1469.00
2089, 1469.00
2090, 1470.00
2091, 1470.00
2092, 1471.00
2093, 1472.00
2094, 1472.00
2095, 1472.00
2096, 1473.00
2097, 1473.00
2098, 1472.00
2099, 1475.00
2100, 1474.00
2101, 1473.00
2102, 1475.00
2103, 1475.00
2104, 1475.00
2105, 1475.00
2106, 1475.00
2107, 1474.00
2108, 1474.00
2109, 1475.00
2110, 1477.00
2111, 1477.00
2112, 1477.00
2113, 1478.00
2114, 1477.00
2115, 1479.00
2116, 1475.00
2117, 1478.00
2118, 1481.00
2119, 1479.00
2120, 1478.00
2121, 1481.00
2122, 1480.00
2123, 1479.00
2124, 1478.00
2125, 1480.00
2126, 1481.00
2127, 1479.00
2128, 1481.00
2129, 1482.00
2130, 1482.00
2131, 1481.00
2132, 1482.00
2133, 1482.00
2134, 1482.00
2135, 1481.00
2136, 1483.00
2137, 1484.00
2138, 1484.00
2139, 1484.00
2140, 1484.00
2141, 1482.00
2142, 1484.00
2143, 1484.00
2144, 1484.00
2145, 1484.00
2146, 1485.00
2147, 1483.00
2148, 1486.00
2149, 1485.00
2150, 1485.00
