FW version: 24
Log Version: 3.0.3

General Info:
       Command/Macro Performed,            Timestamp,             Device ID, COM Port, UART/I2C, Test Name, Host Major, Host Minor, Host Revision, Host Git Commit
            Single_measurement,  2023_06_30_11_24_49,       Insight2_F4_xxx,    USB-C,      USB,          ,          0,          1,             1,      4031237645

Show Spectrometer Status:
l0_version, f4_version, battery_perc, battery_mVolt, accelerometer_temp, accelerometer_x, accelerometer_y, accelerometer_z, compass_temp, compass_x, compass_y, compass_z, lamp_0, lamp_1, gain_0, gain_1
        17,         24,           94,          2074,               6208,           65212,             240,           18540,            0,     65470,     65528,     18542,   3276,   3276,      1,      1

Temperature Statistic Info:
NTC AVG [°C], NTC2 AVG [°C]
      39.411,        39.086

Statistic Info:
M1:  num,      min,      max,   median,      AVG,      STD,M2:  num,      min,      max,   median,      AVG,      STD
     301,  2085.00,  2400.00,  2148.00,  2187.63,  97.8720,     401,  2726.00,  2921.00,  2801.00,  2808.92,  62.5023,

Measurements:
Wavelength, Data Amplitude
1350, 2147.00
1351, 2147.00
1352, 2146.00
1353, 2144.00
1354, 2142.00
1355, 2142.00
1356, 2141.00
1357, 2138.00
1358, 2137.00
1359, 2136.00
1360, 2134.00
1361, 2133.00
1362, 2131.00
1363, 2130.00
1364, 2128.00
1365, 2127.00
1366, 2125.00
1367, 2123.00
1368, 2122.00
1369, 2120.00
1370, 2119.00
1371, 2116.00
1372, 2116.00
1373, 2113.00
1374, 2112.00
1375, 2110.00
1376, 2108.00
1377, 2106.00
1378, 2104.00
1379, 2106.00
1380, 2103.00
1381, 2102.00
1382, 2101.00
1383, 2099.00
1384, 2099.00
1385, 2098.00
1386, 2097.00
1387, 2096.00
1388, 2096.00
1389, 2095.00
1390, 2095.00
1391, 2094.00
1392, 2093.00
1393, 2093.00
1394, 2091.00
1395, 2091.00
1396, 2091.00
1397, 2091.00
1398, 2090.00
1399, 2089.00
1400, 2089.00
1401, 2088.00
1402, 2089.00
1403, 2089.00
1404, 2088.00
1405, 2088.00
1406, 2087.00
1407, 2087.00
1408, 2087.00
1409, 2086.00
1410, 2086.00
1411, 2085.00
1412, 2087.00
1413, 2086.00
1414, 2085.00
1415, 2086.00
1416, 2085.00
1417, 2086.00
1418, 2086.00
1419, 2087.00
1420, 2086.00
1421, 2085.00
1422, 2085.00
1423, 2086.00
1424, 2086.00
1425, 2085.00
1426, 2085.00
1427, 2086.00
1428, 2086.00
1429, 2085.00
1430, 2086.00
1431, 2086.00
1432, 2087.00
1433, 2087.00
1434, 2088.00
1435, 2089.00
1436, 2089.00
1437, 2090.00
1438, 2089.00
1439, 2090.00
1440, 2090.00
1441, 2090.00
1442, 2091.00
1443, 2092.00
1444, 2090.00
1445, 2093.00
1446, 2093.00
1447, 2093.00
1448, 2095.00
1449, 2095.00
1450, 2096.00
1451, 2096.00
1452, 2096.00
1453, 2098.00
1454, 2098.00
1455, 2097.00
1456, 2099.00
1457, 2100.00
1458, 2101.00
1459, 2101.00
1460, 2102.00
1461, 2102.00
1462, 2104.00
1463, 2104.00
1464, 2105.00
1465, 2107.00
1466, 2107.00
1467, 2108.00
1468, 2109.00
1469, 2110.00
1470, 2111.00
1471, 2111.00
1472, 2113.00
1473, 2114.00
1474, 2114.00
1475, 2117.00
1476, 2117.00
1477, 2118.00
1478, 2119.00
1479, 2121.00
1480, 2122.00
1481, 2123.00
1482, 2124.00
1483, 2126.00
1484, 2127.00
1485, 2127.00
1486, 2128.00
1487, 2130.00
1488, 2133.00
1489, 2133.00
1490, 2135.00
1491, 2136.00
1492, 2137.00
1493, 2137.00
1494, 2138.00
1495, 2140.00
1496, 2141.00
1497, 2144.00
1498, 2144.00
1499, 2148.00
1500, 2147.00
1501, 2148.00
1502, 2150.00
1503, 2150.00
1504, 2152.00
1505, 2152.00
1506, 2155.00
1507, 2156.00
1508, 2157.00
1509, 2158.00
1510, 2160.00
1511, 2162.00
1512, 2163.00
1513, 2164.00
1514, 2165.00
1515, 2167.00
1516, 2169.00
1517, 2170.00
1518, 2171.00
1519, 2174.00
1520, 2175.00
1521, 2176.00
1522, 2178.00
1523, 2180.00
1524, 2181.00
1525, 2184.00
1526, 2183.00
1527, 2185.00
1528, 2187.00
1529, 2188.00
1530, 2189.00
1531, 2191.00
1532, 2194.00
1533, 2195.00
1534, 2195.00
1535, 2198.00
1536, 2200.00
1537, 2201.00
1538, 2203.00
1539, 2204.00
1540, 2206.00
1541, 2208.00
1542, 2209.00
1543, 2211.00
1544, 2213.00
1545, 2214.00
1546, 2217.00
1547, 2219.00
1548, 2220.00
1549, 2222.00
1550, 2222.00
1551, 2225.00
1552, 2226.00
1553, 2227.00
1554, 2230.00
1555, 2231.00
1556, 2234.00
1557, 2234.00
1558, 2236.00
1559, 2239.00
1560, 2240.00
1561, 2242.00
1562, 2243.00
1563, 2246.00
1564, 2248.00
1565, 2250.00
1566, 2252.00
1567, 2254.00
1568, 2255.00
1569, 2256.00
1570, 2259.00
1571, 2260.00
1572, 2262.00
1573, 2265.00
1574, 2266.00
1575, 2268.00
1576, 2270.00
1577, 2271.00
1578, 2274.00
1579, 2274.00
1580, 2275.00
1581, 2277.00
1582, 2280.00
1583, 2280.00
1584, 2283.00
1585, 2284.00
1586, 2285.00
1587, 2287.00
1588, 2289.00
1589, 2291.00
1590, 2293.00
1591, 2293.00
1592, 2296.00
1593, 2296.00
1594, 2298.00
1595, 2301.00
1596, 2302.00
1597, 2304.00
1598, 2306.00
1599, 2307.00
1600, 2308.00
1601, 2310.00
1602, 2312.00
1603, 2313.00
1604, 2315.00
1605, 2316.00
1606, 2318.00
1607, 2321.00
1608, 2323.00
1609, 2324.00
1610, 2325.00
1611, 2329.00
1612, 2331.00
1613, 2332.00
1614, 2334.00
1615, 2336.00
1616, 2337.00
1617, 2339.00
1618, 2343.00
1619, 2344.00
1620, 2346.00
1621, 2349.00
1622, 2350.00
1623, 2353.00
1624, 2354.00
1625, 2356.00
1626, 2357.00
1627, 2360.00
1628, 2362.00
1629, 2364.00
1630, 2367.00
1631, 2369.00
1632, 2370.00
1633, 2371.00
1634, 2373.00
1635, 2375.00
1636, 2377.00
1637, 2379.00
1638, 2379.00
1639, 2382.00
1640, 2383.00
1641, 2384.00
1642, 2387.00
1643, 2389.00
1644, 2389.00
1645, 2391.00
1646, 2392.00
1647, 2394.00
1648, 2397.00
1649, 2397.00
1650, 2400.00

1750, 2918.00
1751, 2919.00
1752, 2920.00
1753, 2919.00
1754, 2920.00
1755, 2919.00
1756, 2919.00
1757, 2921.00
1758, 2919.00
1759, 2919.00
1760, 2917.00
1761, 2919.00
1762, 2917.00
1763, 2919.00
1764, 2917.00
1765, 2916.00
1766, 2917.00
1767, 2917.00
1768, 2918.00
1769, 2915.00
1770, 2913.00
1771, 2915.00
1772, 2916.00
1773, 2915.00
1774, 2913.00
1775, 2913.00
1776, 2911.00
1777, 2911.00
1778, 2912.00
1779, 2911.00
1780, 2912.00
1781, 2909.00
1782, 2909.00
1783, 2910.00
1784, 2908.00
1785, 2906.00
1786, 2906.00
1787, 2904.00
1788, 2903.00
1789, 2905.00
1790, 2902.00
1791, 2902.00
1792, 2903.00
1793, 2901.00
1794, 2901.00
1795, 2899.00
1796, 2898.00
1797, 2899.00
1798, 2898.00
1799, 2899.00
1800, 2896.00
1801, 2897.00
1802, 2897.00
1803, 2894.00
1804, 2894.00
1805, 2894.00
1806, 2894.00
1807, 2893.00
1808, 2892.00
1809, 2890.00
1810, 2890.00
1811, 2891.00
1812, 2889.00
1813, 2886.00
1814, 2887.00
1815, 2887.00
1816, 2885.00
1817, 2883.00
1818, 2885.00
1819, 2882.00
1820, 2879.00
1821, 2877.00
1822, 2877.00
1823, 2876.00
1824, 2874.00
1825, 2872.00
1826, 2871.00
1827, 2869.00
1828, 2866.00
1829, 2867.00
1830, 2863.00
1831, 2861.00
1832, 2860.00
1833, 2859.00
1834, 2855.00
1835, 2853.00
1836, 2850.00
1837, 2849.00
1838, 2844.00
1839, 2842.00
1840, 2843.00
1841, 2839.00
1842, 2834.00
1843, 2830.00
1844, 2830.00
1845, 2826.00
1846, 2822.00
1847, 2821.00
1848, 2816.00
1849, 2814.00
1850, 2811.00
1851, 2809.00
1852, 2805.00
1853, 2803.00
1854, 2799.00
1855, 2795.00
1856, 2794.00
1857, 2790.00
1858, 2790.00
1859, 2784.00
1860, 2784.00
1861, 2779.00
1862, 2779.00
1863, 2776.00
1864, 2774.00
1865, 2769.00
1866, 2770.00
1867, 2767.00
1868, 2764.00
1869, 2764.00
1870, 2761.00
1871, 2760.00
1872, 2758.00
1873, 2756.00
1874, 2754.00
1875, 2755.00
1876, 2753.00
1877, 2752.00
1878, 2750.00
1879, 2751.00
1880, 2749.00
1881, 2747.00
1882, 2748.00
1883, 2746.00
1884, 2744.00
1885, 2742.00
1886, 2743.00
1887, 2743.00
1888, 2741.00
1889, 2741.00
1890, 2741.00
1891, 2741.00
1892, 2740.00
1893, 2739.00
1894, 2738.00
1895, 2738.00
1896, 2737.00
1897, 2737.00
1898, 2736.00
1899, 2735.00
1900, 2732.00
1901, 2736.00
1902, 2734.00
1903, 2733.00
1904, 2733.00
1905, 2733.00
1906, 2733.00
1907, 2732.00
1908, 2731.00
1909, 2733.00
1910, 2733.00
1911, 2733.00
1912, 2732.00
1913, 2732.00
1914, 2732.00
1915, 2728.00
1916, 2731.00
1917, 2730.00
1918, 2731.00
1919, 2731.00
1920, 2730.00
1921, 2729.00
1922, 2730.00
1923, 2730.00
1924, 2728.00
1925, 2729.00
1926, 2726.00
1927, 2728.00
1928, 2731.00
1929, 2729.00
1930, 2728.00
1931, 2729.00
1932, 2731.00
1933, 2728.00
1934, 2728.00
1935, 2728.00
1936, 2730.00
1937, 2729.00
1938, 2729.00
1939, 2730.00
1940, 2731.00
1941, 2729.00
1942, 2731.00
1943, 2730.00
1944, 2731.00
1945, 2732.00
1946, 2732.00
1947, 2731.00
1948, 2732.00
1949, 2733.00
1950, 2733.00
1951, 2733.00
1952, 2732.00
1953, 2735.00
1954, 2734.00
1955, 2734.00
1956, 2736.00
1957, 2735.00
1958, 2734.00
1959, 2736.00
1960, 2735.00
1961, 2737.00
1962, 2736.00
1963, 2737.00
1964, 2738.00
1965, 2741.00
1966, 2740.00
1967, 2741.00
1968, 2742.00
1969, 2742.00
1970, 2742.00
1971, 2742.00
1972, 2743.00
1973, 2744.00
1974, 2743.00
1975, 2745.00
1976, 2748.00
1977, 2747.00
1978, 2747.00
1979, 2749.00
1980, 2747.00
1981, 2749.00
1982, 2750.00
1983, 2749.00
1984, 2751.00
1985, 2750.00
1986, 2751.00
1987, 2751.00
1988, 2752.00
1989, 2755.00
1990, 2753.00
1991, 2756.00
1992, 2755.00
1993, 2756.00
1994, 2756.00
1995, 2757.00
1996, 2758.00
1997, 2757.00
1998, 2759.00
1999, 2760.00
2000, 2764.00
2001, 2761.00
2002, 2763.00
2003, 2761.00
2004, 2764.00
2005, 2764.00
2006, 2765.00
2007, 2765.00
2008, 2766.00
2009, 2766.00
2010, 2767.00
2011, 2767.00
2012, 2767.00
2013, 2770.00
2014, 2769.00
2015, 2773.00
2016, 2771.00
2017, 2771.00
2018, 2773.00
2019, 2774.00
2020, 2774.00
2021, 2775.00
2022, 2773.00
2023, 2776.00
2024, 2777.00
2025, 2778.00
2026, 2777.00
2027, 2779.00
2028, 2782.00
2029, 2780.00
2030, 2781.00
2031, 2781.00
2032, 2782.00
2033, 2783.00
2034, 2784.00
2035, 2784.00
2036, 2785.00
2037, 2787.00
2038, 2786.00
2039, 2786.00
2040, 2788.00
2041, 2788.00
2042, 2788.00
2043, 2791.00
2044, 2794.00
2045, 2792.00
2046, 2792.00
2047, 2795.00
2048, 2795.00
2049, 2797.00
2050, 2798.00
2051, 2801.00
2052, 2800.00
2053, 2799.00
2054, 2802.00
2055, 2801.00
2056, 2804.00
2057, 2805.00
2058, 2805.00
2059, 2808.00
2060, 2808.00
2061, 2808.00
2062, 2811.00
2063, 2809.00
2064, 2811.00
2065, 2812.00
2066, 2815.00
2067, 2814.00
2068, 2815.00
2069, 2817.00
2070, 2818.00
2071, 2819.00
2072, 2822.00
2073, 2822.00
2074, 2821.00
2075, 2822.00
2076, 2823.00
2077, 2824.00
2078, 2823.00
2079, 2826.00
2080, 2829.00
2081, 2828.00
2082, 2831.00
2083, 2830.00
2084, 2831.00
2085, 2832.00
2086, 2832.00
2087, 2833.00
2088, 2833.00
2089, 2835.00
2090, 2835.00
2091, 2836.00
2092, 2836.00
2093, 2839.00
2094, 2839.00
2095, 2839.00
2096, 2841.00
2097, 2842.00
2098, 2842.00
2099, 2842.00
2100, 2843.00
2101, 2842.00
2102, 2844.00
2103, 2844.00
2104, 2845.00
2105, 2846.00
2106, 2847.00
2107, 2847.00
2108, 2849.00
2109, 2850.00
2110, 2848.00
2111, 2850.00
2112, 2850.00
2113, 2852.00
2114, 2853.00
2115, 2852.00
2116, 2853.00
2117, 2851.00
2118, 2852.00
2119, 2853.00
2120, 2854.00
2121, 2854.00
2122, 2855.00
2123, 2855.00
2124, 2857.00
2125, 2858.00
2126, 2857.00
2127, 2857.00
2128, 2858.00
2129, 2859.00
2130, 2859.00
2131, 2858.00
2132, 2861.00
2133, 2860.00
2134, 2860.00
2135, 2860.00
2136, 2861.00
2137, 2863.00
2138, 2863.00
2139, 2862.00
2140, 2863.00
2141, 2863.00
2142, 2863.00
2143, 2863.00
2144, 2865.00
2145, 2866.00
2146, 2865.00
2147, 2865.00
2148, 2866.00
2149, 2864.00
2150, 2867.00
