FW version: 24
Log Version: 3.0.3

General Info:
       Command/Macro Performed,            Timestamp,             Device ID, COM Port, UART/I2C, Test Name, Host Major, Host Minor, Host Revision, Host Git Commit
            Single_measurement,  2023_06_30_11_24_53,       Insight2_F4_xxx,    USB-C,      USB,          ,          0,          1,             1,      4031237645

Show Spectrometer Status:
l0_version, f4_version, battery_perc, battery_mVolt, accelerometer_temp, accelerometer_x, accelerometer_y, accelerometer_z, compass_temp, compass_x, compass_y, compass_z, lamp_0, lamp_1, gain_0, gain_1
        17,         24,           94,          2074,               6208,           65268,             156,           18568,            0,     65526,     65503,     18568,   3276,   3276,      1,      1

Temperature Statistic Info:
NTC AVG [°C], NTC2 AVG [°C]
      39.470,        39.145

Statistic Info:
M1:  num,      min,      max,   median,      AVG,      STD,M2:  num,      min,      max,   median,      AVG,      STD
     301,  2083.00,  2399.00,  2146.00,  2186.34,  97.9697,     401,  2725.00,  2920.00,  2801.00,  2807.70,  62.4948,

Measurements:
Wavelength, Data Amplitude
1350, 2145.00
1351, 2145.00
1352, 2143.00
1353, 2142.00
1354, 2140.00
1355, 2140.00
1356, 2140.00
1357, 2138.00
1358, 2137.00
1359, 2135.00
1360, 2133.00
1361, 2132.00
1362, 2129.00
1363, 2129.00
1364, 2125.00
1365, 2126.00
1366, 2123.00
1367, 2122.00
1368, 2120.00
1369, 2119.00
1370, 2117.00
1371, 2115.00
1372, 2114.00
1373, 2112.00
1374, 2110.00
1375, 2111.00
1376, 2108.00
1377, 2105.00
1378, 2105.00
1379, 2103.00
1380, 2103.00
1381, 2100.00
1382, 2099.00
1383, 2098.00
1384, 2098.00
1385, 2097.00
1386, 2095.00
1387, 2095.00
1388, 2094.00
1389, 2094.00
1390, 2093.00
1391, 2093.00
1392, 2091.00
1393, 2091.00
1394, 2090.00
1395, 2089.00
1396, 2089.00
1397, 2089.00
1398, 2089.00
1399, 2088.00
1400, 2088.00
1401, 2089.00
1402, 2088.00
1403, 2087.00
1404, 2086.00
1405, 2087.00
1406, 2086.00
1407, 2086.00
1408, 2085.00
1409, 2085.00
1410, 2086.00
1411, 2085.00
1412, 2085.00
1413, 2084.00
1414, 2085.00
1415, 2085.00
1416, 2083.00
1417, 2084.00
1418, 2084.00
1419, 2084.00
1420, 2084.00
1421, 2084.00
1422, 2084.00
1423, 2084.00
1424, 2084.00
1425, 2084.00
1426, 2085.00
1427, 2085.00
1428, 2084.00
1429, 2085.00
1430, 2085.00
1431, 2085.00
1432, 2085.00
1433, 2085.00
1434, 2087.00
1435, 2087.00
1436, 2087.00
1437, 2087.00
1438, 2088.00
1439, 2088.00
1440, 2089.00
1441, 2090.00
1442, 2090.00
1443, 2089.00
1444, 2091.00
1445, 2090.00
1446, 2091.00
1447, 2093.00
1448, 2093.00
1449, 2092.00
1450, 2093.00
1451, 2095.00
1452, 2094.00
1453, 2095.00
1454, 2097.00
1455, 2098.00
1456, 2097.00
1457, 2098.00
1458, 2099.00
1459, 2100.00
1460, 2101.00
1461, 2102.00
1462, 2103.00
1463, 2103.00
1464, 2105.00
1465, 2104.00
1466, 2105.00
1467, 2106.00
1468, 2108.00
1469, 2108.00
1470, 2109.00
1471, 2109.00
1472, 2110.00
1473, 2112.00
1474, 2113.00
1475, 2115.00
1476, 2115.00
1477, 2117.00
1478, 2118.00
1479, 2119.00
1480, 2121.00
1481, 2122.00
1482, 2123.00
1483, 2125.00
1484, 2125.00
1485, 2128.00
1486, 2129.00
1487, 2130.00
1488, 2130.00
1489, 2132.00
1490, 2133.00
1491, 2134.00
1492, 2136.00
1493, 2137.00
1494, 2138.00
1495, 2137.00
1496, 2140.00
1497, 2142.00
1498, 2143.00
1499, 2144.00
1500, 2146.00
1501, 2147.00
1502, 2148.00
1503, 2149.00
1504, 2151.00
1505, 2152.00
1506, 2152.00
1507, 2155.00
1508, 2156.00
1509, 2157.00
1510, 2158.00
1511, 2160.00
1512, 2162.00
1513, 2164.00
1514, 2165.00
1515, 2165.00
1516, 2167.00
1517, 2169.00
1518, 2171.00
1519, 2171.00
1520, 2174.00
1521, 2175.00
1522, 2177.00
1523, 2177.00
1524, 2180.00
1525, 2181.00
1526, 2182.00
1527, 2184.00
1528, 2186.00
1529, 2188.00
1530, 2188.00
1531, 2189.00
1532, 2193.00
1533, 2193.00
1534, 2195.00
1535, 2196.00
1536, 2199.00
1537, 2201.00
1538, 2201.00
1539, 2203.00
1540, 2205.00
1541, 2206.00
1542, 2209.00
1543, 2210.00
1544, 2212.00
1545, 2213.00
1546, 2215.00
1547, 2217.00
1548, 2219.00
1549, 2219.00
1550, 2222.00
1551, 2223.00
1552, 2226.00
1553, 2226.00
1554, 2228.00
1555, 2231.00
1556, 2231.00
1557, 2234.00
1558, 2235.00
1559, 2238.00
1560, 2240.00
1561, 2242.00
1562, 2241.00
1563, 2245.00
1564, 2246.00
1565, 2249.00
1566, 2251.00
1567, 2252.00
1568, 2254.00
1569, 2255.00
1570, 2258.00
1571, 2259.00
1572, 2262.00
1573, 2263.00
1574, 2265.00
1575, 2267.00
1576, 2267.00
1577, 2269.00
1578, 2271.00
1579, 2273.00
1580, 2276.00
1581, 2276.00
1582, 2278.00
1583, 2280.00
1584, 2281.00
1585, 2283.00
1586, 2284.00
1587, 2286.00
1588, 2288.00
1589, 2289.00
1590, 2290.00
1591, 2292.00
1592, 2294.00
1593, 2295.00
1594, 2297.00
1595, 2299.00
1596, 2301.00
1597, 2302.00
1598, 2304.00
1599, 2305.00
1600, 2308.00
1601, 2309.00
1602, 2310.00
1603, 2312.00
1604, 2314.00
1605, 2316.00
1606, 2319.00
1607, 2320.00
1608, 2322.00
1609, 2322.00
1610, 2326.00
1611, 2327.00
1612, 2328.00
1613, 2331.00
1614, 2333.00
1615, 2335.00
1616, 2337.00
1617, 2339.00
1618, 2341.00
1619, 2343.00
1620, 2346.00
1621, 2346.00
1622, 2350.00
1623, 2352.00
1624, 2353.00
1625, 2355.00
1626, 2356.00
1627, 2358.00
1628, 2361.00
1629, 2363.00
1630, 2366.00
1631, 2368.00
1632, 2368.00
1633, 2371.00
1634, 2371.00
1635, 2374.00
1636, 2376.00
1637, 2377.00
1638, 2378.00
1639, 2380.00
1640, 2382.00
1641, 2383.00
1642, 2386.00
1643, 2387.00
1644, 2389.00
1645, 2391.00
1646, 2391.00
1647, 2393.00
1648, 2395.00
1649, 2396.00
1650, 2399.00

1750, 2917.00
1751, 2914.00
1752, 2919.00
1753, 2919.00
1754, 2920.00
1755, 2919.00
1756, 2917.00
1757, 2918.00
1758, 2918.00
1759, 2917.00
1760, 2917.00
1761, 2917.00
1762, 2916.00
1763, 2916.00
1764, 2917.00
1765, 2917.00
1766, 2915.00
1767, 2915.00
1768, 2915.00
1769, 2914.00
1770, 2914.00
1771, 2915.00
1772, 2914.00
1773, 2914.00
1774, 2912.00
1775, 2914.00
1776, 2912.00
1777, 2910.00
1778, 2907.00
1779, 2907.00
1780, 2908.00
1781, 2907.00
1782, 2909.00
1783, 2908.00
1784, 2908.00
1785, 2905.00
1786, 2906.00
1787, 2905.00
1788, 2902.00
1789, 2903.00
1790, 2901.00
1791, 2902.00
1792, 2901.00
1793, 2899.00
1794, 2900.00
1795, 2899.00
1796, 2899.00
1797, 2897.00
1798, 2899.00
1799, 2897.00
1800, 2894.00
1801, 2895.00
1802, 2896.00
1803, 2894.00
1804, 2895.00
1805, 2893.00
1806, 2891.00
1807, 2891.00
1808, 2889.00
1809, 2890.00
1810, 2888.00
1811, 2889.00
1812, 2888.00
1813, 2886.00
1814, 2883.00
1815, 2885.00
1816, 2882.00
1817, 2881.00
1818, 2881.00
1819, 2881.00
1820, 2879.00
1821, 2877.00
1822, 2876.00
1823, 2876.00
1824, 2873.00
1825, 2872.00
1826, 2871.00
1827, 2868.00
1828, 2867.00
1829, 2866.00
1830, 2863.00
1831, 2859.00
1832, 2860.00
1833, 2856.00
1834, 2854.00
1835, 2851.00
1836, 2848.00
1837, 2847.00
1838, 2843.00
1839, 2840.00
1840, 2839.00
1841, 2837.00
1842, 2833.00
1843, 2829.00
1844, 2827.00
1845, 2824.00
1846, 2822.00
1847, 2819.00
1848, 2815.00
1849, 2810.00
1850, 2809.00
1851, 2804.00
1852, 2805.00
1853, 2801.00
1854, 2797.00
1855, 2794.00
1856, 2792.00
1857, 2791.00
1858, 2787.00
1859, 2784.00
1860, 2784.00
1861, 2779.00
1862, 2776.00
1863, 2775.00
1864, 2774.00
1865, 2769.00
1866, 2768.00
1867, 2765.00
1868, 2765.00
1869, 2762.00
1870, 2759.00
1871, 2758.00
1872, 2758.00
1873, 2755.00
1874, 2753.00
1875, 2753.00
1876, 2751.00
1877, 2750.00
1878, 2750.00
1879, 2747.00
1880, 2748.00
1881, 2748.00
1882, 2745.00
1883, 2744.00
1884, 2745.00
1885, 2744.00
1886, 2741.00
1887, 2741.00
1888, 2741.00
1889, 2739.00
1890, 2739.00
1891, 2737.00
1892, 2736.00
1893, 2736.00
1894, 2737.00
1895, 2737.00
1896, 2737.00
1897, 2737.00
1898, 2735.00
1899, 2733.00
1900, 2736.00
1901, 2734.00
1902, 2733.00
1903, 2733.00
1904, 2732.00
1905, 2732.00
1906, 2732.00
1907, 2732.00
1908, 2732.00
1909, 2730.00
1910, 2729.00
1911, 2731.00
1912, 2730.00
1913, 2729.00
1914, 2730.00
1915, 2729.00
1916, 2729.00
1917, 2729.00
1918, 2727.00
1919, 2729.00
1920, 2727.00
1921, 2729.00
1922, 2728.00
1923, 2725.00
1924, 2729.00
1925, 2727.00
1926, 2729.00
1927, 2728.00
1928, 2729.00
1929, 2726.00
1930, 2728.00
1931, 2728.00
1932, 2729.00
1933, 2728.00
1934, 2729.00
1935, 2727.00
1936, 2729.00
1937, 2728.00
1938, 2728.00
1939, 2729.00
1940, 2728.00
1941, 2728.00
1942, 2729.00
1943, 2729.00
1944, 2731.00
1945, 2730.00
1946, 2729.00
1947, 2729.00
1948, 2729.00
1949, 2731.00
1950, 2731.00
1951, 2733.00
1952, 2731.00
1953, 2733.00
1954, 2733.00
1955, 2734.00
1956, 2735.00
1957, 2733.00
1958, 2735.00
1959, 2735.00
1960, 2737.00
1961, 2737.00
1962, 2736.00
1963, 2737.00
1964, 2738.00
1965, 2736.00
1966, 2741.00
1967, 2739.00
1968, 2739.00
1969, 2740.00
1970, 2740.00
1971, 2742.00
1972, 2740.00
1973, 2744.00
1974, 2743.00
1975, 2743.00
1976, 2744.00
1977, 2745.00
1978, 2746.00
1979, 2744.00
1980, 2747.00
1981, 2747.00
1982, 2750.00
1983, 2750.00
1984, 2750.00
1985, 2750.00
1986, 2752.00
1987, 2750.00
1988, 2751.00
1989, 2753.00
1990, 2752.00
1991, 2754.00
1992, 2753.00
1993, 2755.00
1994, 2755.00
1995, 2756.00
1996, 2757.00
1997, 2757.00
1998, 2760.00
1999, 2759.00
2000, 2760.00
2001, 2760.00
2002, 2760.00
2003, 2760.00
2004, 2762.00
2005, 2761.00
2006, 2763.00
2007, 2762.00
2008, 2764.00
2009, 2767.00
2010, 2766.00
2011, 2767.00
2012, 2767.00
2013, 2766.00
2014, 2769.00
2015, 2768.00
2016, 2770.00
2017, 2772.00
2018, 2771.00
2019, 2771.00
2020, 2773.00
2021, 2774.00
2022, 2773.00
2023, 2775.00
2024, 2775.00
2025, 2775.00
2026, 2777.00
2027, 2778.00
2028, 2778.00
2029, 2778.00
2030, 2780.00
2031, 2782.00
2032, 2781.00
2033, 2782.00
2034, 2782.00
2035, 2783.00
2036, 2786.00
2037, 2784.00
2038, 2785.00
2039, 2787.00
2040, 2788.00
2041, 2787.00
2042, 2790.00
2043, 2789.00
2044, 2792.00
2045, 2792.00
2046, 2795.00
2047, 2794.00
2048, 2796.00
2049, 2795.00
2050, 2797.00
2051, 2795.00
2052, 2799.00
2053, 2801.00
2054, 2801.00
2055, 2801.00
2056, 2803.00
2057, 2803.00
2058, 2806.00
2059, 2805.00
2060, 2807.00
2061, 2807.00
2062, 2810.00
2063, 2810.00
2064, 2810.00
2065, 2812.00
2066, 2813.00
2067, 2812.00
2068, 2815.00
2069, 2817.00
2070, 2818.00
2071, 2818.00
2072, 2819.00
2073, 2820.00
2074, 2822.00
2075, 2821.00
2076, 2823.00
2077, 2823.00
2078, 2825.00
2079, 2826.00
2080, 2827.00
2081, 2828.00
2082, 2827.00
2083, 2829.00
2084, 2829.00
2085, 2831.00
2086, 2832.00
2087, 2830.00
2088, 2832.00
2089, 2834.00
2090, 2836.00
2091, 2838.00
2092, 2836.00
2093, 2838.00
2094, 2838.00
2095, 2838.00
2096, 2839.00
2097, 2839.00
2098, 2838.00
2099, 2842.00
2100, 2842.00
2101, 2842.00
2102, 2843.00
2103, 2843.00
2104, 2845.00
2105, 2846.00
2106, 2846.00
2107, 2847.00
2108, 2846.00
2109, 2848.00
2110, 2847.00
2111, 2849.00
2112, 2849.00
2113, 2849.00
2114, 2851.00
2115, 2852.00
2116, 2850.00
2117, 2850.00
2118, 2852.00
2119, 2853.00
2120, 2851.00
2121, 2853.00
2122, 2853.00
2123, 2855.00
2124, 2854.00
2125, 2855.00
2126, 2856.00
2127, 2857.00
2128, 2856.00
2129, 2857.00
2130, 2856.00
2131, 2859.00
2132, 2859.00
2133, 2861.00
2134, 2858.00
2135, 2860.00
2136, 2860.00
2137, 2860.00
2138, 2860.00
2139, 2859.00
2140, 2861.00
2141, 2863.00
2142, 2863.00
2143, 2864.00
2144, 2864.00
2145, 2861.00
2146, 2861.00
2147, 2865.00
2148, 2866.00
2149, 2863.00
2150, 2865.00
