FW version: 24
Log Version: 3.0.3

General Info:
       Command/Macro Performed,            Timestamp,             Device ID, COM Port, UART/I2C, Test Name, Host Major, Host Minor, Host Revision, Host Git Commit
            Single_measurement,  2023_07_11_10_52_53,       Insight2_F4_xxx,    USB-C,      USB,          ,          0,          1,             1,      4031237645

Show Spectrometer Status:
l0_version, f4_version, battery_perc, battery_mVolt, accelerometer_temp, accelerometer_x, accelerometer_y, accelerometer_z, compass_temp, compass_x, compass_y, compass_z, lamp_0, lamp_1, gain_0, gain_1
        17,         24,           49,          1915,               6304,           65396,             760,           18820,            0,     65406,     65529,     18908,   2047,   2047,      1,      1

Temperature Statistic Info:
NTC AVG [°C], NTC2 AVG [°C]
      39.086,        38.796

Statistic Info:
M1:  num,      min,      max,   median,      AVG,      STD,M2:  num,      min,      max,   median,      AVG,      STD
     301,   928.00,  1082.00,   961.00,   979.80,  48.9509,     401,  1312.00,  1404.00,  1350.00,  1352.69,  30.4112,

Measurements:
Wavelength, Data Amplitude
1350, 953.00
1351, 954.00
1352, 953.00
1353, 953.00
1354, 952.00
1355, 951.00
1356, 951.00
1357, 950.00
1358, 950.00
1359, 948.00
1360, 948.00
1361, 947.00
1362, 947.00
1363, 945.00
1364, 945.00
1365, 944.00
1366, 944.00
1367, 943.00
1368, 942.00
1369, 942.00
1370, 943.00
1371, 940.00
1372, 940.00
1373, 939.00
1374, 939.00
1375, 937.00
1376, 938.00
1377, 937.00
1378, 936.00
1379, 937.00
1380, 936.00
1381, 934.00
1382, 935.00
1383, 934.00
1384, 934.00
1385, 933.00
1386, 933.00
1387, 933.00
1388, 932.00
1389, 932.00
1390, 931.00
1391, 932.00
1392, 932.00
1393, 930.00
1394, 930.00
1395, 930.00
1396, 930.00
1397, 930.00
1398, 930.00
1399, 930.00
1400, 930.00
1401, 930.00
1402, 930.00
1403, 929.00
1404, 930.00
1405, 930.00
1406, 929.00
1407, 929.00
1408, 929.00
1409, 928.00
1410, 929.00
1411, 929.00
1412, 929.00
1413, 929.00
1414, 928.00
1415, 929.00
1416, 929.00
1417, 929.00
1418, 929.00
1419, 929.00
1420, 928.00
1421, 929.00
1422, 930.00
1423, 929.00
1424, 928.00
1425, 929.00
1426, 929.00
1427, 929.00
1428, 929.00
1429, 930.00
1430, 929.00
1431, 930.00
1432, 930.00
1433, 931.00
1434, 931.00
1435, 931.00
1436, 931.00
1437, 932.00
1438, 931.00
1439, 932.00
1440, 931.00
1441, 931.00
1442, 932.00
1443, 932.00
1444, 933.00
1445, 933.00
1446, 933.00
1447, 934.00
1448, 934.00
1449, 934.00
1450, 934.00
1451, 935.00
1452, 935.00
1453, 936.00
1454, 937.00
1455, 936.00
1456, 937.00
1457, 936.00
1458, 938.00
1459, 937.00
1460, 938.00
1461, 938.00
1462, 939.00
1463, 939.00
1464, 939.00
1465, 940.00
1466, 941.00
1467, 941.00
1468, 941.00
1469, 942.00
1470, 943.00
1471, 943.00
1472, 944.00
1473, 944.00
1474, 943.00
1475, 944.00
1476, 946.00
1477, 947.00
1478, 947.00
1479, 947.00
1480, 948.00
1481, 949.00
1482, 951.00
1483, 951.00
1484, 951.00
1485, 950.00
1486, 952.00
1487, 952.00
1488, 953.00
1489, 953.00
1490, 954.00
1491, 955.00
1492, 955.00
1493, 956.00
1494, 958.00
1495, 958.00
1496, 959.00
1497, 958.00
1498, 959.00
1499, 961.00
1500, 961.00
1501, 962.00
1502, 962.00
1503, 962.00
1504, 964.00
1505, 965.00
1506, 965.00
1507, 965.00
1508, 966.00
1509, 968.00
1510, 968.00
1511, 967.00
1512, 970.00
1513, 970.00
1514, 971.00
1515, 971.00
1516, 971.00
1517, 973.00
1518, 974.00
1519, 973.00
1520, 975.00
1521, 976.00
1522, 977.00
1523, 979.00
1524, 979.00
1525, 980.00
1526, 979.00
1527, 981.00
1528, 982.00
1529, 983.00
1530, 983.00
1531, 985.00
1532, 984.00
1533, 985.00
1534, 986.00
1535, 988.00
1536, 988.00
1537, 989.00
1538, 989.00
1539, 990.00
1540, 992.00
1541, 992.00
1542, 993.00
1543, 993.00
1544, 994.00
1545, 995.00
1546, 997.00
1547, 997.00
1548, 997.00
1549, 998.00
1550, 999.00
1551, 999.00
1552, 1002.00
1553, 1002.00
1554, 1002.00
1555, 1003.00
1556, 1004.00
1557, 1005.00
1558, 1006.00
1559, 1007.00
1560, 1007.00
1561, 1008.00
1562, 1010.00
1563, 1010.00
1564, 1011.00
1565, 1012.00
1566, 1013.00
1567, 1014.00
1568, 1015.00
1569, 1015.00
1570, 1017.00
1571, 1018.00
1572, 1018.00
1573, 1018.00
1574, 1020.00
1575, 1020.00
1576, 1021.00
1577, 1022.00
1578, 1022.00
1579, 1024.00
1580, 1024.00
1581, 1025.00
1582, 1027.00
1583, 1026.00
1584, 1028.00
1585, 1029.00
1586, 1029.00
1587, 1030.00
1588, 1030.00
1589, 1031.00
1590, 1032.00
1591, 1033.00
1592, 1033.00
1593, 1034.00
1594, 1036.00
1595, 1036.00
1596, 1037.00
1597, 1038.00
1598, 1039.00
1599, 1039.00
1600, 1040.00
1601, 1041.00
1602, 1042.00
1603, 1043.00
1604, 1044.00
1605, 1045.00
1606, 1045.00
1607, 1047.00
1608, 1047.00
1609, 1049.00
1610, 1049.00
1611, 1050.00
1612, 1052.00
1613, 1052.00
1614, 1052.00
1615, 1054.00
1616, 1055.00
1617, 1057.00
1618, 1057.00
1619, 1058.00
1620, 1060.00
1621, 1060.00
1622, 1061.00
1623, 1062.00
1624, 1063.00
1625, 1064.00
1626, 1066.00
1627, 1065.00
1628, 1067.00
1629, 1068.00
1630, 1069.00
1631, 1069.00
1632, 1069.00
1633, 1071.00
1634, 1072.00
1635, 1072.00
1636, 1073.00
1637, 1073.00
1638, 1075.00
1639, 1075.00
1640, 1076.00
1641, 1077.00
1642, 1077.00
1643, 1077.00
1644, 1078.00
1645, 1079.00
1646, 1080.00
1647, 1080.00
1648, 1080.00
1649, 1081.00
1650, 1082.00

1750, 1403.00
1751, 1403.00
1752, 1402.00
1753, 1404.00
1754, 1403.00
1755, 1403.00
1756, 1402.00
1757, 1403.00
1758, 1403.00
1759, 1404.00
1760, 1402.00
1761, 1402.00
1762, 1403.00
1763, 1403.00
1764, 1402.00
1765, 1403.00
1766, 1403.00
1767, 1402.00
1768, 1401.00
1769, 1402.00
1770, 1401.00
1771, 1404.00
1772, 1401.00
1773, 1402.00
1774, 1401.00
1775, 1402.00
1776, 1401.00
1777, 1402.00
1778, 1400.00
1779, 1399.00
1780, 1399.00
1781, 1400.00
1782, 1398.00
1783, 1399.00
1784, 1398.00
1785, 1398.00
1786, 1398.00
1787, 1397.00
1788, 1398.00
1789, 1396.00
1790, 1399.00
1791, 1395.00
1792, 1394.00
1793, 1398.00
1794, 1397.00
1795, 1394.00
1796, 1395.00
1797, 1394.00
1798, 1393.00
1799, 1396.00
1800, 1395.00
1801, 1394.00
1802, 1394.00
1803, 1391.00
1804, 1393.00
1805, 1391.00
1806, 1391.00
1807, 1392.00
1808, 1392.00
1809, 1389.00
1810, 1391.00
1811, 1391.00
1812, 1390.00
1813, 1390.00
1814, 1388.00
1815, 1389.00
1816, 1388.00
1817, 1386.00
1818, 1387.00
1819, 1387.00
1820, 1387.00
1821, 1386.00
1822, 1383.00
1823, 1385.00
1824, 1384.00
1825, 1383.00
1826, 1380.00
1827, 1380.00
1828, 1379.00
1829, 1379.00
1830, 1378.00
1831, 1377.00
1832, 1377.00
1833, 1374.00
1834, 1373.00
1835, 1373.00
1836, 1374.00
1837, 1370.00
1838, 1369.00
1839, 1370.00
1840, 1368.00
1841, 1366.00
1842, 1364.00
1843, 1361.00
1844, 1361.00
1845, 1361.00
1846, 1357.00
1847, 1358.00
1848, 1355.00
1849, 1353.00
1850, 1354.00
1851, 1352.00
1852, 1350.00
1853, 1350.00
1854, 1347.00
1855, 1347.00
1856, 1346.00
1857, 1342.00
1858, 1341.00
1859, 1341.00
1860, 1339.00
1861, 1338.00
1862, 1335.00
1863, 1334.00
1864, 1334.00
1865, 1332.00
1866, 1332.00
1867, 1333.00
1868, 1331.00
1869, 1329.00
1870, 1328.00
1871, 1329.00
1872, 1327.00
1873, 1326.00
1874, 1326.00
1875, 1325.00
1876, 1325.00
1877, 1324.00
1878, 1323.00
1879, 1323.00
1880, 1321.00
1881, 1322.00
1882, 1322.00
1883, 1320.00
1884, 1321.00
1885, 1322.00
1886, 1319.00
1887, 1319.00
1888, 1320.00
1889, 1320.00
1890, 1319.00
1891, 1318.00
1892, 1319.00
1893, 1317.00
1894, 1318.00
1895, 1319.00
1896, 1317.00
1897, 1317.00
1898, 1316.00
1899, 1315.00
1900, 1316.00
1901, 1316.00
1902, 1316.00
1903, 1316.00
1904, 1317.00
1905, 1316.00
1906, 1315.00
1907, 1315.00
1908, 1314.00
1909, 1314.00
1910, 1312.00
1911, 1313.00
1912, 1313.00
1913, 1313.00
1914, 1313.00
1915, 1314.00
1916, 1314.00
1917, 1314.00
1918, 1315.00
1919, 1312.00
1920, 1313.00
1921, 1315.00
1922, 1314.00
1923, 1314.00
1924, 1313.00
1925, 1313.00
1926, 1312.00
1927, 1313.00
1928, 1314.00
1929, 1312.00
1930, 1314.00
1931, 1313.00
1932, 1315.00
1933, 1314.00
1934, 1312.00
1935, 1313.00
1936, 1313.00
1937, 1314.00
1938, 1313.00
1939, 1314.00
1940, 1312.00
1941, 1314.00
1942, 1313.00
1943, 1317.00
1944, 1315.00
1945, 1315.00
1946, 1315.00
1947, 1315.00
1948, 1314.00
1949, 1315.00
1950, 1315.00
1951, 1316.00
1952, 1316.00
1953, 1316.00
1954, 1316.00
1955, 1317.00
1956, 1318.00
1957, 1317.00
1958, 1315.00
1959, 1315.00
1960, 1316.00
1961, 1317.00
1962, 1316.00
1963, 1318.00
1964, 1317.00
1965, 1320.00
1966, 1317.00
1967, 1319.00
1968, 1319.00
1969, 1320.00
1970, 1320.00
1971, 1321.00
1972, 1321.00
1973, 1321.00
1974, 1321.00
1975, 1320.00
1976, 1321.00
1977, 1321.00
1978, 1323.00
1979, 1322.00
1980, 1323.00
1981, 1323.00
1982, 1322.00
1983, 1323.00
1984, 1325.00
1985, 1323.00
1986, 1325.00
1987, 1325.00
1988, 1325.00
1989, 1324.00
1990, 1327.00
1991, 1326.00
1992, 1328.00
1993, 1325.00
1994, 1329.00
1995, 1327.00
1996, 1329.00
1997, 1328.00
1998, 1327.00
1999, 1329.00
2000, 1328.00
2001, 1331.00
2002, 1330.00
2003, 1329.00
2004, 1331.00
2005, 1331.00
2006, 1331.00
2007, 1332.00
2008, 1332.00
2009, 1331.00
2010, 1332.00
2011, 1333.00
2012, 1333.00
2013, 1332.00
2014, 1332.00
2015, 1335.00
2016, 1335.00
2017, 1336.00
2018, 1334.00
2019, 1334.00
2020, 1335.00
2021, 1336.00
2022, 1336.00
2023, 1335.00
2024, 1337.00
2025, 1338.00
2026, 1337.00
2027, 1337.00
2028, 1339.00
2029, 1339.00
2030, 1339.00
2031, 1340.00
2032, 1339.00
2033, 1338.00
2034, 1339.00
2035, 1342.00
2036, 1342.00
2037, 1343.00
2038, 1343.00
2039, 1343.00
2040, 1345.00
2041, 1345.00
2042, 1343.00
2043, 1345.00
2044, 1345.00
2045, 1345.00
2046, 1347.00
2047, 1348.00
2048, 1348.00
2049, 1347.00
2050, 1348.00
2051, 1349.00
2052, 1350.00
2053, 1350.00
2054, 1351.00
2055, 1352.00
2056, 1351.00
2057, 1353.00
2058, 1353.00
2059, 1353.00
2060, 1354.00
2061, 1353.00
2062, 1354.00
2063, 1353.00
2064, 1356.00
2065, 1355.00
2066, 1357.00
2067, 1358.00
2068, 1358.00
2069, 1357.00
2070, 1360.00
2071, 1358.00
2072, 1360.00
2073, 1362.00
2074, 1360.00
2075, 1362.00
2076, 1362.00
2077, 1363.00
2078, 1363.00
2079, 1362.00
2080, 1362.00
2081, 1364.00
2082, 1365.00
2083, 1367.00
2084, 1364.00
2085, 1366.00
2086, 1365.00
2087, 1367.00
2088, 1367.00
2089, 1368.00
2090, 1369.00
2091, 1370.00
2092, 1367.00
2093, 1369.00
2094, 1369.00
2095, 1370.00
2096, 1370.00
2097, 1371.00
2098, 1372.00
2099, 1373.00
2100, 1371.00
2101, 1373.00
2102, 1373.00
2103, 1373.00
2104, 1373.00
2105, 1372.00
2106, 1373.00
2107, 1374.00
2108, 1375.00
2109, 1374.00
2110, 1373.00
2111, 1375.00
2112, 1378.00
2113, 1376.00
2114, 1376.00
2115, 1378.00
2116, 1377.00
2117, 1376.00
2118, 1378.00
2119, 1378.00
2120, 1379.00
2121, 1380.00
2122, 1378.00
2123, 1378.00
2124, 1380.00
2125, 1380.00
2126, 1381.00
2127, 1381.00
2128, 1380.00
2129, 1380.00
2130, 1382.00
2131, 1381.00
2132, 1379.00
2133, 1382.00
2134, 1381.00
2135, 1381.00
2136, 1383.00
2137, 1383.00
2138, 1380.00
2139, 1381.00
2140, 1385.00
2141, 1385.00
2142, 1383.00
2143, 1385.00
2144, 1384.00
2145, 1383.00
2146, 1385.00
2147, 1383.00
2148, 1384.00
2149, 1387.00
2150, 1385.00
