FW version: 24
Log Version: 3.0.3

General Info:
       Command/Macro Performed,            Timestamp,             Device ID, COM Port, UART/I2C, Test Name, Host Major, Host Minor, Host Revision, Host Git Commit
            Single_measurement,  2023_06_29_11_24_48,       Insight2_F4_xxx,    USB-C,      USB,          ,          0,          1,             1,      4031237645

Show Spectrometer Status:
l0_version, f4_version, battery_perc, battery_mVolt, accelerometer_temp, accelerometer_x, accelerometer_y, accelerometer_z, compass_temp, compass_x, compass_y, compass_z, lamp_0, lamp_1, gain_0, gain_1
        17,         24,           94,          2076,               5584,           65388,             120,           18492,            0,     65389,     65404,     65534,   2457,   2457,      1,      1

Temperature Statistic Info:
NTC AVG [°C], NTC2 AVG [°C]
      36.523,        36.178

Statistic Info:
M1:  num,      min,      max,   median,      AVG,      STD,M2:  num,      min,      max,   median,      AVG,      STD
     301,   982.00,  1136.00,  1014.00,  1032.47,  47.6596,     401,  1382.00,  1474.00,  1418.00,  1421.25,  29.4575,

Measurements:
Wavelength, Data Amplitude
1350, 1010.00
1351, 1008.00
1352, 1009.00
1353, 1007.00
1354, 1006.00
1355, 1006.00
1356, 1007.00
1357, 1005.00
1358, 1006.00
1359, 1005.00
1360, 1005.00
1361, 1003.00
1362, 1004.00
1363, 1001.00
1364, 1001.00
1365, 1001.00
1366, 1000.00
1367, 999.00
1368, 999.00
1369, 997.00
1370, 998.00
1371, 996.00
1372, 995.00
1373, 994.00
1374, 993.00
1375, 994.00
1376, 993.00
1377, 992.00
1378, 991.00
1379, 990.00
1380, 990.00
1381, 990.00
1382, 989.00
1383, 989.00
1384, 989.00
1385, 988.00
1386, 987.00
1387, 987.00
1388, 987.00
1389, 987.00
1390, 987.00
1391, 987.00
1392, 985.00
1393, 985.00
1394, 985.00
1395, 985.00
1396, 984.00
1397, 984.00
1398, 984.00
1399, 985.00
1400, 984.00
1401, 984.00
1402, 983.00
1403, 984.00
1404, 983.00
1405, 984.00
1406, 984.00
1407, 983.00
1408, 983.00
1409, 983.00
1410, 983.00
1411, 983.00
1412, 983.00
1413, 983.00
1414, 984.00
1415, 983.00
1416, 982.00
1417, 983.00
1418, 983.00
1419, 983.00
1420, 982.00
1421, 983.00
1422, 983.00
1423, 982.00
1424, 982.00
1425, 982.00
1426, 983.00
1427, 983.00
1428, 984.00
1429, 983.00
1430, 983.00
1431, 985.00
1432, 984.00
1433, 985.00
1434, 984.00
1435, 984.00
1436, 985.00
1437, 985.00
1438, 984.00
1439, 985.00
1440, 985.00
1441, 986.00
1442, 986.00
1443, 986.00
1444, 986.00
1445, 987.00
1446, 987.00
1447, 987.00
1448, 988.00
1449, 988.00
1450, 987.00
1451, 988.00
1452, 987.00
1453, 988.00
1454, 989.00
1455, 990.00
1456, 989.00
1457, 990.00
1458, 990.00
1459, 990.00
1460, 991.00
1461, 991.00
1462, 993.00
1463, 993.00
1464, 993.00
1465, 993.00
1466, 994.00
1467, 994.00
1468, 995.00
1469, 995.00
1470, 994.00
1471, 997.00
1472, 996.00
1473, 998.00
1474, 997.00
1475, 999.00
1476, 999.00
1477, 998.00
1478, 1000.00
1479, 1001.00
1480, 1002.00
1481, 1001.00
1482, 1002.00
1483, 1003.00
1484, 1003.00
1485, 1005.00
1486, 1004.00
1487, 1005.00
1488, 1006.00
1489, 1007.00
1490, 1008.00
1491, 1008.00
1492, 1009.00
1493, 1007.00
1494, 1010.00
1495, 1010.00
1496, 1011.00
1497, 1012.00
1498, 1012.00
1499, 1013.00
1500, 1014.00
1501, 1014.00
1502, 1016.00
1503, 1016.00
1504, 1016.00
1505, 1016.00
1506, 1018.00
1507, 1019.00
1508, 1019.00
1509, 1020.00
1510, 1020.00
1511, 1019.00
1512, 1022.00
1513, 1022.00
1514, 1024.00
1515, 1024.00
1516, 1025.00
1517, 1025.00
1518, 1026.00
1519, 1027.00
1520, 1028.00
1521, 1028.00
1522, 1030.00
1523, 1029.00
1524, 1030.00
1525, 1031.00
1526, 1034.00
1527, 1033.00
1528, 1035.00
1529, 1034.00
1530, 1035.00
1531, 1036.00
1532, 1038.00
1533, 1038.00
1534, 1038.00
1535, 1040.00
1536, 1040.00
1537, 1042.00
1538, 1041.00
1539, 1043.00
1540, 1043.00
1541, 1044.00
1542, 1045.00
1543, 1045.00
1544, 1046.00
1545, 1046.00
1546, 1047.00
1547, 1049.00
1548, 1049.00
1549, 1050.00
1550, 1050.00
1551, 1051.00
1552, 1052.00
1553, 1052.00
1554, 1053.00
1555, 1055.00
1556, 1055.00
1557, 1056.00
1558, 1056.00
1559, 1058.00
1560, 1058.00
1561, 1059.00
1562, 1060.00
1563, 1061.00
1564, 1062.00
1565, 1063.00
1566, 1063.00
1567, 1064.00
1568, 1065.00
1569, 1067.00
1570, 1067.00
1571, 1068.00
1572, 1069.00
1573, 1070.00
1574, 1070.00
1575, 1071.00
1576, 1072.00
1577, 1073.00
1578, 1075.00
1579, 1074.00
1580, 1075.00
1581, 1077.00
1582, 1077.00
1583, 1077.00
1584, 1077.00
1585, 1079.00
1586, 1079.00
1587, 1080.00
1588, 1081.00
1589, 1081.00
1590, 1083.00
1591, 1083.00
1592, 1085.00
1593, 1086.00
1594, 1086.00
1595, 1086.00
1596, 1088.00
1597, 1088.00
1598, 1089.00
1599, 1090.00
1600, 1091.00
1601, 1091.00
1602, 1093.00
1603, 1094.00
1604, 1094.00
1605, 1095.00
1606, 1095.00
1607, 1097.00
1608, 1098.00
1609, 1098.00
1610, 1100.00
1611, 1101.00
1612, 1102.00
1613, 1103.00
1614, 1103.00
1615, 1103.00
1616, 1105.00
1617, 1106.00
1618, 1107.00
1619, 1109.00
1620, 1110.00
1621, 1111.00
1622, 1111.00
1623, 1112.00
1624, 1113.00
1625, 1114.00
1626, 1114.00
1627, 1116.00
1628, 1117.00
1629, 1118.00
1630, 1120.00
1631, 1121.00
1632, 1121.00
1633, 1122.00
1634, 1122.00
1635, 1123.00
1636, 1124.00
1637, 1126.00
1638, 1126.00
1639, 1127.00
1640, 1128.00
1641, 1128.00
1642, 1129.00
1643, 1130.00
1644, 1130.00
1645, 1131.00
1646, 1132.00
1647, 1133.00
1648, 1135.00
1649, 1135.00
1650, 1136.00

1750, 1472.00
1751, 1471.00
1752, 1471.00
1753, 1472.00
1754, 1471.00
1755, 1474.00
1756, 1472.00
1757, 1473.00
1758, 1472.00
1759, 1473.00
1760, 1470.00
1761, 1471.00
1762, 1471.00
1763, 1471.00
1764, 1471.00
1765, 1471.00
1766, 1471.00
1767, 1470.00
1768, 1471.00
1769, 1473.00
1770, 1471.00
1771, 1470.00
1772, 1469.00
1773, 1471.00
1774, 1470.00
1775, 1469.00
1776, 1469.00
1777, 1467.00
1778, 1470.00
1779, 1469.00
1780, 1467.00
1781, 1469.00
1782, 1468.00
1783, 1468.00
1784, 1467.00
1785, 1466.00
1786, 1467.00
1787, 1466.00
1788, 1465.00
1789, 1463.00
1790, 1467.00
1791, 1465.00
1792, 1466.00
1793, 1464.00
1794, 1466.00
1795, 1463.00
1796, 1463.00
1797, 1463.00
1798, 1463.00
1799, 1463.00
1800, 1463.00
1801, 1461.00
1802, 1461.00
1803, 1461.00
1804, 1462.00
1805, 1460.00
1806, 1461.00
1807, 1461.00
1808, 1459.00
1809, 1461.00
1810, 1459.00
1811, 1459.00
1812, 1459.00
1813, 1459.00
1814, 1458.00
1815, 1458.00
1816, 1457.00
1817, 1456.00
1818, 1457.00
1819, 1456.00
1820, 1455.00
1821, 1454.00
1822, 1455.00
1823, 1455.00
1824, 1452.00
1825, 1451.00
1826, 1451.00
1827, 1449.00
1828, 1448.00
1829, 1448.00
1830, 1448.00
1831, 1446.00
1832, 1446.00
1833, 1444.00
1834, 1444.00
1835, 1443.00
1836, 1443.00
1837, 1440.00
1838, 1440.00
1839, 1437.00
1840, 1436.00
1841, 1435.00
1842, 1432.00
1843, 1432.00
1844, 1431.00
1845, 1430.00
1846, 1429.00
1847, 1427.00
1848, 1426.00
1849, 1423.00
1850, 1422.00
1851, 1421.00
1852, 1420.00
1853, 1418.00
1854, 1417.00
1855, 1415.00
1856, 1414.00
1857, 1412.00
1858, 1411.00
1859, 1409.00
1860, 1410.00
1861, 1409.00
1862, 1407.00
1863, 1407.00
1864, 1405.00
1865, 1405.00
1866, 1403.00
1867, 1400.00
1868, 1402.00
1869, 1401.00
1870, 1399.00
1871, 1399.00
1872, 1398.00
1873, 1399.00
1874, 1397.00
1875, 1397.00
1876, 1396.00
1877, 1394.00
1878, 1394.00
1879, 1395.00
1880, 1394.00
1881, 1393.00
1882, 1393.00
1883, 1391.00
1884, 1391.00
1885, 1391.00
1886, 1390.00
1887, 1390.00
1888, 1389.00
1889, 1390.00
1890, 1389.00
1891, 1390.00
1892, 1390.00
1893, 1388.00
1894, 1390.00
1895, 1387.00
1896, 1387.00
1897, 1389.00
1898, 1387.00
1899, 1387.00
1900, 1387.00
1901, 1385.00
1902, 1386.00
1903, 1387.00
1904, 1387.00
1905, 1386.00
1906, 1386.00
1907, 1387.00
1908, 1386.00
1909, 1386.00
1910, 1385.00
1911, 1386.00
1912, 1386.00
1913, 1384.00
1914, 1384.00
1915, 1385.00
1916, 1385.00
1917, 1385.00
1918, 1385.00
1919, 1384.00
1920, 1383.00
1921, 1383.00
1922, 1384.00
1923, 1384.00
1924, 1382.00
1925, 1384.00
1926, 1384.00
1927, 1383.00
1928, 1384.00
1929, 1384.00
1930, 1382.00
1931, 1383.00
1932, 1384.00
1933, 1385.00
1934, 1384.00
1935, 1384.00
1936, 1383.00
1937, 1383.00
1938, 1383.00
1939, 1383.00
1940, 1384.00
1941, 1385.00
1942, 1386.00
1943, 1385.00
1944, 1385.00
1945, 1385.00
1946, 1385.00
1947, 1384.00
1948, 1385.00
1949, 1385.00
1950, 1384.00
1951, 1385.00
1952, 1385.00
1953, 1385.00
1954, 1386.00
1955, 1386.00
1956, 1386.00
1957, 1387.00
1958, 1387.00
1959, 1387.00
1960, 1388.00
1961, 1387.00
1962, 1386.00
1963, 1386.00
1964, 1387.00
1965, 1390.00
1966, 1388.00
1967, 1389.00
1968, 1390.00
1969, 1389.00
1970, 1391.00
1971, 1389.00
1972, 1389.00
1973, 1390.00
1974, 1389.00
1975, 1392.00
1976, 1394.00
1977, 1391.00
1978, 1391.00
1979, 1392.00
1980, 1394.00
1981, 1393.00
1982, 1392.00
1983, 1392.00
1984, 1392.00
1985, 1393.00
1986, 1393.00
1987, 1393.00
1988, 1396.00
1989, 1394.00
1990, 1394.00
1991, 1395.00
1992, 1396.00
1993, 1392.00
1994, 1397.00
1995, 1396.00
1996, 1397.00
1997, 1397.00
1998, 1398.00
1999, 1398.00
2000, 1397.00
2001, 1397.00
2002, 1400.00
2003, 1400.00
2004, 1398.00
2005, 1399.00
2006, 1399.00
2007, 1399.00
2008, 1400.00
2009, 1401.00
2010, 1402.00
2011, 1402.00
2012, 1400.00
2013, 1401.00
2014, 1402.00
2015, 1403.00
2016, 1404.00
2017, 1403.00
2018, 1402.00
2019, 1404.00
2020, 1404.00
2021, 1404.00
2022, 1404.00
2023, 1405.00
2024, 1403.00
2025, 1404.00
2026, 1407.00
2027, 1406.00
2028, 1407.00
2029, 1407.00
2030, 1408.00
2031, 1407.00
2032, 1407.00
2033, 1409.00
2034, 1408.00
2035, 1408.00
2036, 1410.00
2037, 1410.00
2038, 1409.00
2039, 1409.00
2040, 1410.00
2041, 1412.00
2042, 1413.00
2043, 1411.00
2044, 1414.00
2045, 1413.00
2046, 1413.00
2047, 1414.00
2048, 1415.00
2049, 1414.00
2050, 1415.00
2051, 1415.00
2052, 1416.00
2053, 1418.00
2054, 1417.00
2055, 1418.00
2056, 1419.00
2057, 1419.00
2058, 1419.00
2059, 1419.00
2060, 1420.00
2061, 1421.00
2062, 1421.00
2063, 1422.00
2064, 1422.00
2065, 1423.00
2066, 1422.00
2067, 1423.00
2068, 1424.00
2069, 1424.00
2070, 1427.00
2071, 1427.00
2072, 1427.00
2073, 1427.00
2074, 1427.00
2075, 1428.00
2076, 1429.00
2077, 1430.00
2078, 1431.00
2079, 1429.00
2080, 1429.00
2081, 1429.00
2082, 1430.00
2083, 1431.00
2084, 1433.00
2085, 1431.00
2086, 1434.00
2087, 1434.00
2088, 1433.00
2089, 1433.00
2090, 1435.00
2091, 1435.00
2092, 1434.00
2093, 1435.00
2094, 1436.00
2095, 1438.00
2096, 1435.00
2097, 1440.00
2098, 1438.00
2099, 1439.00
2100, 1438.00
2101, 1437.00
2102, 1438.00
2103, 1439.00
2104, 1440.00
2105, 1439.00
2106, 1439.00
2107, 1440.00
2108, 1439.00
2109, 1441.00
2110, 1440.00
2111, 1441.00
2112, 1441.00
2113, 1443.00
2114, 1443.00
2115, 1442.00
2116, 1444.00
2117, 1444.00
2118, 1445.00
2119, 1443.00
2120, 1445.00
2121, 1443.00
2122, 1445.00
2123, 1446.00
2124, 1443.00
2125, 1443.00
2126, 1445.00
2127, 1446.00
2128, 1446.00
2129, 1445.00
2130, 1445.00
2131, 1447.00
2132, 1447.00
2133, 1448.00
2134, 1447.00
2135, 1448.00
2136, 1447.00
2137, 1448.00
2138, 1449.00
2139, 1448.00
2140, 1450.00
2141, 1447.00
2142, 1447.00
2143, 1450.00
2144, 1449.00
2145, 1447.00
2146, 1448.00
2147, 1449.00
2148, 1449.00
2149, 1449.00
2150, 1449.00
