FW version: 24
Log Version: 3.0.3

General Info:
       Command/Macro Performed,            Timestamp,             Device ID, COM Port, UART/I2C, Test Name, Host Major, Host Minor, Host Revision, Host Git Commit
            Single_measurement,  2023_07_11_11_42_46,       Insight2_F4_xxx,    USB-C,      USB,          ,          0,          1,             1,      4031237645

Show Spectrometer Status:
l0_version, f4_version, battery_perc, battery_mVolt, accelerometer_temp, accelerometer_x, accelerometer_y, accelerometer_z, compass_temp, compass_x, compass_y, compass_z, lamp_0, lamp_1, gain_0, gain_1
        17,         24,           51,          1908,               7024,           65296,            1216,           18784,            0,     65333,     65480,     18784,   2866,   2866,      1,      1

Temperature Statistic Info:
NTC AVG [°C], NTC2 AVG [°C]
      42.192,        41.892

Statistic Info:
M1:  num,      min,      max,   median,      AVG,      STD,M2:  num,      min,      max,   median,      AVG,      STD
     301,  2034.00,  2343.00,  2099.00,  2136.65,  96.3382,     401,  2729.00,  2912.00,  2807.00,  2810.82,  59.7045,

Measurements:
Wavelength, Data Amplitude
1350, 2085.00
1351, 2084.00
1352, 2083.00
1353, 2082.00
1354, 2082.00
1355, 2081.00
1356, 2081.00
1357, 2078.00
1358, 2078.00
1359, 2078.00
1360, 2076.00
1361, 2075.00
1362, 2074.00
1363, 2071.00
1364, 2070.00
1365, 2069.00
1366, 2067.00
1367, 2068.00
1368, 2065.00
1369, 2064.00
1370, 2063.00
1371, 2061.00
1372, 2059.00
1373, 2058.00
1374, 2056.00
1375, 2056.00
1376, 2056.00
1377, 2053.00
1378, 2052.00
1379, 2050.00
1380, 2049.00
1381, 2049.00
1382, 2047.00
1383, 2046.00
1384, 2046.00
1385, 2045.00
1386, 2044.00
1387, 2044.00
1388, 2043.00
1389, 2042.00
1390, 2041.00
1391, 2041.00
1392, 2041.00
1393, 2041.00
1394, 2039.00
1395, 2040.00
1396, 2039.00
1397, 2038.00
1398, 2039.00
1399, 2037.00
1400, 2038.00
1401, 2038.00
1402, 2038.00
1403, 2037.00
1404, 2037.00
1405, 2038.00
1406, 2036.00
1407, 2037.00
1408, 2035.00
1409, 2036.00
1410, 2036.00
1411, 2036.00
1412, 2036.00
1413, 2036.00
1414, 2035.00
1415, 2035.00
1416, 2035.00
1417, 2036.00
1418, 2035.00
1419, 2035.00
1420, 2036.00
1421, 2034.00
1422, 2035.00
1423, 2036.00
1424, 2036.00
1425, 2036.00
1426, 2036.00
1427, 2037.00
1428, 2037.00
1429, 2038.00
1430, 2038.00
1431, 2038.00
1432, 2037.00
1433, 2039.00
1434, 2039.00
1435, 2038.00
1436, 2039.00
1437, 2041.00
1438, 2040.00
1439, 2042.00
1440, 2041.00
1441, 2041.00
1442, 2043.00
1443, 2043.00
1444, 2043.00
1445, 2044.00
1446, 2045.00
1447, 2045.00
1448, 2046.00
1449, 2046.00
1450, 2048.00
1451, 2048.00
1452, 2049.00
1453, 2051.00
1454, 2050.00
1455, 2051.00
1456, 2051.00
1457, 2053.00
1458, 2053.00
1459, 2054.00
1460, 2055.00
1461, 2056.00
1462, 2057.00
1463, 2058.00
1464, 2059.00
1465, 2059.00
1466, 2061.00
1467, 2061.00
1468, 2062.00
1469, 2064.00
1470, 2064.00
1471, 2065.00
1472, 2065.00
1473, 2068.00
1474, 2068.00
1475, 2070.00
1476, 2072.00
1477, 2072.00
1478, 2073.00
1479, 2074.00
1480, 2075.00
1481, 2077.00
1482, 2077.00
1483, 2079.00
1484, 2081.00
1485, 2082.00
1486, 2083.00
1487, 2085.00
1488, 2086.00
1489, 2086.00
1490, 2088.00
1491, 2089.00
1492, 2090.00
1493, 2092.00
1494, 2093.00
1495, 2093.00
1496, 2095.00
1497, 2096.00
1498, 2098.00
1499, 2099.00
1500, 2099.00
1501, 2102.00
1502, 2102.00
1503, 2103.00
1504, 2104.00
1505, 2107.00
1506, 2108.00
1507, 2109.00
1508, 2111.00
1509, 2113.00
1510, 2112.00
1511, 2113.00
1512, 2117.00
1513, 2118.00
1514, 2118.00
1515, 2121.00
1516, 2122.00
1517, 2124.00
1518, 2123.00
1519, 2125.00
1520, 2127.00
1521, 2129.00
1522, 2130.00
1523, 2131.00
1524, 2133.00
1525, 2135.00
1526, 2137.00
1527, 2138.00
1528, 2139.00
1529, 2141.00
1530, 2142.00
1531, 2143.00
1532, 2145.00
1533, 2147.00
1534, 2148.00
1535, 2149.00
1536, 2152.00
1537, 2153.00
1538, 2154.00
1539, 2155.00
1540, 2157.00
1541, 2158.00
1542, 2161.00
1543, 2162.00
1544, 2164.00
1545, 2165.00
1546, 2167.00
1547, 2169.00
1548, 2171.00
1549, 2172.00
1550, 2174.00
1551, 2176.00
1552, 2177.00
1553, 2179.00
1554, 2180.00
1555, 2181.00
1556, 2184.00
1557, 2185.00
1558, 2187.00
1559, 2188.00
1560, 2190.00
1561, 2192.00
1562, 2194.00
1563, 2196.00
1564, 2198.00
1565, 2199.00
1566, 2201.00
1567, 2203.00
1568, 2203.00
1569, 2205.00
1570, 2209.00
1571, 2210.00
1572, 2210.00
1573, 2213.00
1574, 2215.00
1575, 2217.00
1576, 2218.00
1577, 2220.00
1578, 2221.00
1579, 2222.00
1580, 2225.00
1581, 2226.00
1582, 2227.00
1583, 2229.00
1584, 2230.00
1585, 2231.00
1586, 2232.00
1587, 2234.00
1588, 2237.00
1589, 2239.00
1590, 2239.00
1591, 2243.00
1592, 2242.00
1593, 2245.00
1594, 2246.00
1595, 2247.00
1596, 2248.00
1597, 2250.00
1598, 2252.00
1599, 2254.00
1600, 2254.00
1601, 2257.00
1602, 2258.00
1603, 2260.00
1604, 2262.00
1605, 2264.00
1606, 2266.00
1607, 2267.00
1608, 2269.00
1609, 2269.00
1610, 2272.00
1611, 2274.00
1612, 2276.00
1613, 2278.00
1614, 2280.00
1615, 2283.00
1616, 2283.00
1617, 2285.00
1618, 2287.00
1619, 2289.00
1620, 2292.00
1621, 2294.00
1622, 2295.00
1623, 2297.00
1624, 2300.00
1625, 2301.00
1626, 2303.00
1627, 2306.00
1628, 2307.00
1629, 2309.00
1630, 2310.00
1631, 2313.00
1632, 2314.00
1633, 2316.00
1634, 2318.00
1635, 2318.00
1636, 2321.00
1637, 2322.00
1638, 2324.00
1639, 2326.00
1640, 2327.00
1641, 2329.00
1642, 2331.00
1643, 2332.00
1644, 2335.00
1645, 2335.00
1646, 2337.00
1647, 2339.00
1648, 2340.00
1649, 2341.00
1650, 2343.00

1750, 2908.00
1751, 2908.00
1752, 2908.00
1753, 2911.00
1754, 2909.00
1755, 2909.00
1756, 2909.00
1757, 2912.00
1758, 2909.00
1759, 2908.00
1760, 2907.00
1761, 2908.00
1762, 2907.00
1763, 2908.00
1764, 2907.00
1765, 2906.00
1766, 2907.00
1767, 2907.00
1768, 2907.00
1769, 2908.00
1770, 2905.00
1771, 2906.00
1772, 2904.00
1773, 2904.00
1774, 2906.00
1775, 2901.00
1776, 2904.00
1777, 2902.00
1778, 2901.00
1779, 2902.00
1780, 2900.00
1781, 2899.00
1782, 2901.00
1783, 2899.00
1784, 2899.00
1785, 2898.00
1786, 2897.00
1787, 2897.00
1788, 2897.00
1789, 2896.00
1790, 2896.00
1791, 2893.00
1792, 2894.00
1793, 2892.00
1794, 2891.00
1795, 2894.00
1796, 2892.00
1797, 2889.00
1798, 2889.00
1799, 2889.00
1800, 2889.00
1801, 2889.00
1802, 2887.00
1803, 2887.00
1804, 2887.00
1805, 2887.00
1806, 2885.00
1807, 2887.00
1808, 2884.00
1809, 2884.00
1810, 2885.00
1811, 2880.00
1812, 2878.00
1813, 2880.00
1814, 2881.00
1815, 2880.00
1816, 2880.00
1817, 2878.00
1818, 2877.00
1819, 2875.00
1820, 2874.00
1821, 2874.00
1822, 2872.00
1823, 2871.00
1824, 2871.00
1825, 2868.00
1826, 2868.00
1827, 2864.00
1828, 2865.00
1829, 2864.00
1830, 2860.00
1831, 2858.00
1832, 2855.00
1833, 2855.00
1834, 2853.00
1835, 2851.00
1836, 2850.00
1837, 2847.00
1838, 2845.00
1839, 2840.00
1840, 2839.00
1841, 2837.00
1842, 2836.00
1843, 2831.00
1844, 2827.00
1845, 2824.00
1846, 2823.00
1847, 2819.00
1848, 2820.00
1849, 2815.00
1850, 2813.00
1851, 2811.00
1852, 2807.00
1853, 2805.00
1854, 2801.00
1855, 2798.00
1856, 2797.00
1857, 2792.00
1858, 2788.00
1859, 2789.00
1860, 2786.00
1861, 2781.00
1862, 2779.00
1863, 2778.00
1864, 2777.00
1865, 2771.00
1866, 2772.00
1867, 2768.00
1868, 2767.00
1869, 2767.00
1870, 2763.00
1871, 2762.00
1872, 2761.00
1873, 2757.00
1874, 2758.00
1875, 2755.00
1876, 2755.00
1877, 2751.00
1878, 2750.00
1879, 2751.00
1880, 2750.00
1881, 2749.00
1882, 2748.00
1883, 2747.00
1884, 2745.00
1885, 2746.00
1886, 2744.00
1887, 2743.00
1888, 2743.00
1889, 2741.00
1890, 2743.00
1891, 2740.00
1892, 2737.00
1893, 2739.00
1894, 2739.00
1895, 2739.00
1896, 2737.00
1897, 2738.00
1898, 2737.00
1899, 2737.00
1900, 2735.00
1901, 2737.00
1902, 2735.00
1903, 2735.00
1904, 2735.00
1905, 2734.00
1906, 2735.00
1907, 2734.00
1908, 2733.00
1909, 2733.00
1910, 2733.00
1911, 2730.00
1912, 2731.00
1913, 2733.00
1914, 2729.00
1915, 2731.00
1916, 2730.00
1917, 2732.00
1918, 2730.00
1919, 2731.00
1920, 2732.00
1921, 2730.00
1922, 2730.00
1923, 2730.00
1924, 2729.00
1925, 2730.00
1926, 2729.00
1927, 2730.00
1928, 2731.00
1929, 2731.00
1930, 2731.00
1931, 2731.00
1932, 2732.00
1933, 2729.00
1934, 2732.00
1935, 2732.00
1936, 2729.00
1937, 2732.00
1938, 2731.00
1939, 2731.00
1940, 2730.00
1941, 2731.00
1942, 2732.00
1943, 2734.00
1944, 2734.00
1945, 2732.00
1946, 2735.00
1947, 2732.00
1948, 2733.00
1949, 2735.00
1950, 2734.00
1951, 2736.00
1952, 2735.00
1953, 2737.00
1954, 2739.00
1955, 2737.00
1956, 2738.00
1957, 2738.00
1958, 2739.00
1959, 2739.00
1960, 2739.00
1961, 2740.00
1962, 2741.00
1963, 2742.00
1964, 2742.00
1965, 2741.00
1966, 2744.00
1967, 2745.00
1968, 2745.00
1969, 2745.00
1970, 2746.00
1971, 2745.00
1972, 2745.00
1973, 2748.00
1974, 2751.00
1975, 2749.00
1976, 2751.00
1977, 2751.00
1978, 2751.00
1979, 2752.00
1980, 2753.00
1981, 2753.00
1982, 2753.00
1983, 2754.00
1984, 2756.00
1985, 2756.00
1986, 2756.00
1987, 2757.00
1988, 2759.00
1989, 2760.00
1990, 2760.00
1991, 2759.00
1992, 2762.00
1993, 2762.00
1994, 2763.00
1995, 2761.00
1996, 2763.00
1997, 2764.00
1998, 2765.00
1999, 2767.00
2000, 2769.00
2001, 2769.00
2002, 2769.00
2003, 2769.00
2004, 2769.00
2005, 2771.00
2006, 2772.00
2007, 2772.00
2008, 2772.00
2009, 2772.00
2010, 2775.00
2011, 2775.00
2012, 2773.00
2013, 2775.00
2014, 2775.00
2015, 2775.00
2016, 2778.00
2017, 2779.00
2018, 2777.00
2019, 2780.00
2020, 2781.00
2021, 2783.00
2022, 2781.00
2023, 2783.00
2024, 2784.00
2025, 2785.00
2026, 2787.00
2027, 2784.00
2028, 2786.00
2029, 2789.00
2030, 2790.00
2031, 2791.00
2032, 2788.00
2033, 2793.00
2034, 2790.00
2035, 2792.00
2036, 2792.00
2037, 2795.00
2038, 2794.00
2039, 2795.00
2040, 2794.00
2041, 2797.00
2042, 2798.00
2043, 2799.00
2044, 2800.00
2045, 2802.00
2046, 2802.00
2047, 2802.00
2048, 2805.00
2049, 2805.00
2050, 2805.00
2051, 2806.00
2052, 2804.00
2053, 2810.00
2054, 2810.00
2055, 2811.00
2056, 2813.00
2057, 2815.00
2058, 2814.00
2059, 2815.00
2060, 2815.00
2061, 2817.00
2062, 2820.00
2063, 2819.00
2064, 2821.00
2065, 2822.00
2066, 2821.00
2067, 2824.00
2068, 2825.00
2069, 2826.00
2070, 2826.00
2071, 2828.00
2072, 2827.00
2073, 2828.00
2074, 2829.00
2075, 2829.00
2076, 2832.00
2077, 2832.00
2078, 2831.00
2079, 2833.00
2080, 2836.00
2081, 2836.00
2082, 2839.00
2083, 2838.00
2084, 2839.00
2085, 2840.00
2086, 2840.00
2087, 2842.00
2088, 2843.00
2089, 2842.00
2090, 2843.00
2091, 2843.00
2092, 2844.00
2093, 2846.00
2094, 2846.00
2095, 2846.00
2096, 2848.00
2097, 2848.00
2098, 2850.00
2099, 2850.00
2100, 2848.00
2101, 2851.00
2102, 2852.00
2103, 2853.00
2104, 2854.00
2105, 2853.00
2106, 2853.00
2107, 2854.00
2108, 2855.00
2109, 2855.00
2110, 2855.00
2111, 2856.00
2112, 2857.00
2113, 2858.00
2114, 2857.00
2115, 2857.00
2116, 2861.00
2117, 2857.00
2118, 2858.00
2119, 2859.00
2120, 2860.00
2121, 2861.00
2122, 2861.00
2123, 2862.00
2124, 2864.00
2125, 2863.00
2126, 2863.00
2127, 2863.00
2128, 2865.00
2129, 2864.00
2130, 2866.00
2131, 2865.00
2132, 2865.00
2133, 2867.00
2134, 2867.00
2135, 2868.00
2136, 2869.00
2137, 2870.00
2138, 2869.00
2139, 2868.00
2140, 2869.00
2141, 2870.00
2142, 2869.00
2143, 2871.00
2144, 2869.00
2145, 2873.00
2146, 2872.00
2147, 2874.00
2148, 2871.00
2149, 2872.00
2150, 2873.00
