FW version: 24
Log Version: 3.0.3

General Info:
       Command/Macro Performed,            Timestamp,             Device ID, COM Port, UART/I2C, Test Name, Host Major, Host Minor, Host Revision, Host Git Commit
            Single_measurement,  2023_07_11_11_43_09,       Insight2_F4_xxx,    USB-C,      USB,          ,          0,          1,             1,      4031237645

Show Spectrometer Status:
l0_version, f4_version, battery_perc, battery_mVolt, accelerometer_temp, accelerometer_x, accelerometer_y, accelerometer_z, compass_temp, compass_x, compass_y, compass_z, lamp_0, lamp_1, gain_0, gain_1
        17,         24,           51,          1910,               7024,           65240,            1232,           18768,            0,     65533,     65493,     18807,   3276,   3276,      1,      1

Temperature Statistic Info:
NTC AVG [°C], NTC2 AVG [°C]
      42.373,        42.010

Statistic Info:
M1:  num,      min,      max,   median,      AVG,      STD,M2:  num,      min,      max,   median,      AVG,      STD
     301,  2617.00,  2998.00,  2697.00,  2743.22, 119.2216,     401,  3389.00,  3615.00,  3484.00,  3488.42,  73.4765,

Measurements:
Wavelength, Data Amplitude
1350, 2683.00
1351, 2683.00
1352, 2681.00
1353, 2682.00
1354, 2678.00
1355, 2677.00
1356, 2676.00
1357, 2674.00
1358, 2673.00
1359, 2671.00
1360, 2670.00
1361, 2669.00
1362, 2667.00
1363, 2666.00
1364, 2663.00
1365, 2661.00
1366, 2660.00
1367, 2657.00
1368, 2657.00
1369, 2655.00
1370, 2654.00
1371, 2651.00
1372, 2649.00
1373, 2647.00
1374, 2646.00
1375, 2644.00
1376, 2642.00
1377, 2642.00
1378, 2638.00
1379, 2638.00
1380, 2636.00
1381, 2636.00
1382, 2635.00
1383, 2634.00
1384, 2631.00
1385, 2631.00
1386, 2629.00
1387, 2630.00
1388, 2627.00
1389, 2627.00
1390, 2627.00
1391, 2626.00
1392, 2627.00
1393, 2625.00
1394, 2624.00
1395, 2624.00
1396, 2623.00
1397, 2624.00
1398, 2623.00
1399, 2622.00
1400, 2621.00
1401, 2621.00
1402, 2621.00
1403, 2620.00
1404, 2620.00
1405, 2620.00
1406, 2619.00
1407, 2618.00
1408, 2618.00
1409, 2619.00
1410, 2619.00
1411, 2618.00
1412, 2619.00
1413, 2617.00
1414, 2617.00
1415, 2617.00
1416, 2617.00
1417, 2617.00
1418, 2618.00
1419, 2618.00
1420, 2617.00
1421, 2617.00
1422, 2617.00
1423, 2618.00
1424, 2617.00
1425, 2619.00
1426, 2619.00
1427, 2618.00
1428, 2618.00
1429, 2620.00
1430, 2620.00
1431, 2621.00
1432, 2620.00
1433, 2621.00
1434, 2621.00
1435, 2621.00
1436, 2623.00
1437, 2623.00
1438, 2623.00
1439, 2624.00
1440, 2626.00
1441, 2625.00
1442, 2627.00
1443, 2627.00
1444, 2628.00
1445, 2629.00
1446, 2628.00
1447, 2629.00
1448, 2629.00
1449, 2631.00
1450, 2632.00
1451, 2632.00
1452, 2633.00
1453, 2634.00
1454, 2635.00
1455, 2636.00
1456, 2636.00
1457, 2637.00
1458, 2640.00
1459, 2641.00
1460, 2642.00
1461, 2643.00
1462, 2644.00
1463, 2645.00
1464, 2645.00
1465, 2645.00
1466, 2649.00
1467, 2649.00
1468, 2651.00
1469, 2651.00
1470, 2653.00
1471, 2653.00
1472, 2654.00
1473, 2658.00
1474, 2658.00
1475, 2660.00
1476, 2661.00
1477, 2663.00
1478, 2663.00
1479, 2665.00
1480, 2666.00
1481, 2668.00
1482, 2670.00
1483, 2672.00
1484, 2674.00
1485, 2674.00
1486, 2675.00
1487, 2677.00
1488, 2679.00
1489, 2680.00
1490, 2683.00
1491, 2684.00
1492, 2685.00
1493, 2687.00
1494, 2688.00
1495, 2690.00
1496, 2692.00
1497, 2694.00
1498, 2694.00
1499, 2696.00
1500, 2697.00
1501, 2698.00
1502, 2701.00
1503, 2702.00
1504, 2703.00
1505, 2704.00
1506, 2706.00
1507, 2708.00
1508, 2711.00
1509, 2711.00
1510, 2713.00
1511, 2714.00
1512, 2717.00
1513, 2719.00
1514, 2720.00
1515, 2723.00
1516, 2725.00
1517, 2725.00
1518, 2726.00
1519, 2729.00
1520, 2731.00
1521, 2732.00
1522, 2735.00
1523, 2737.00
1524, 2738.00
1525, 2740.00
1526, 2742.00
1527, 2743.00
1528, 2747.00
1529, 2747.00
1530, 2749.00
1531, 2751.00
1532, 2753.00
1533, 2754.00
1534, 2757.00
1535, 2759.00
1536, 2761.00
1537, 2763.00
1538, 2764.00
1539, 2766.00
1540, 2769.00
1541, 2771.00
1542, 2773.00
1543, 2775.00
1544, 2777.00
1545, 2779.00
1546, 2780.00
1547, 2783.00
1548, 2784.00
1549, 2785.00
1550, 2789.00
1551, 2791.00
1552, 2793.00
1553, 2795.00
1554, 2796.00
1555, 2798.00
1556, 2801.00
1557, 2804.00
1558, 2805.00
1559, 2809.00
1560, 2809.00
1561, 2812.00
1562, 2815.00
1563, 2815.00
1564, 2818.00
1565, 2821.00
1566, 2823.00
1567, 2825.00
1568, 2828.00
1569, 2829.00
1570, 2831.00
1571, 2833.00
1572, 2835.00
1573, 2838.00
1574, 2840.00
1575, 2843.00
1576, 2845.00
1577, 2846.00
1578, 2848.00
1579, 2851.00
1580, 2853.00
1581, 2854.00
1582, 2857.00
1583, 2857.00
1584, 2858.00
1585, 2862.00
1586, 2865.00
1587, 2864.00
1588, 2866.00
1589, 2869.00
1590, 2871.00
1591, 2873.00
1592, 2874.00
1593, 2877.00
1594, 2879.00
1595, 2881.00
1596, 2883.00
1597, 2884.00
1598, 2886.00
1599, 2888.00
1600, 2890.00
1601, 2892.00
1602, 2894.00
1603, 2896.00
1604, 2899.00
1605, 2900.00
1606, 2902.00
1607, 2904.00
1608, 2907.00
1609, 2909.00
1610, 2911.00
1611, 2914.00
1612, 2916.00
1613, 2920.00
1614, 2922.00
1615, 2924.00
1616, 2926.00
1617, 2929.00
1618, 2931.00
1619, 2934.00
1620, 2935.00
1621, 2938.00
1622, 2940.00
1623, 2943.00
1624, 2944.00
1625, 2947.00
1626, 2948.00
1627, 2951.00
1628, 2954.00
1629, 2957.00
1630, 2958.00
1631, 2960.00
1632, 2963.00
1633, 2965.00
1634, 2967.00
1635, 2969.00
1636, 2971.00
1637, 2973.00
1638, 2975.00
1639, 2977.00
1640, 2978.00
1641, 2980.00
1642, 2982.00
1643, 2984.00
1644, 2987.00
1645, 2987.00
1646, 2990.00
1647, 2992.00
1648, 2994.00
1649, 2997.00
1650, 2998.00

1750, 3611.00
1751, 3615.00
1752, 3612.00
1753, 3612.00
1754, 3612.00
1755, 3611.00
1756, 3612.00
1757, 3611.00
1758, 3613.00
1759, 3610.00
1760, 3610.00
1761, 3613.00
1762, 3611.00
1763, 3611.00
1764, 3608.00
1765, 3611.00
1766, 3608.00
1767, 3609.00
1768, 3610.00
1769, 3607.00
1770, 3607.00
1771, 3606.00
1772, 3609.00
1773, 3606.00
1774, 3603.00
1775, 3605.00
1776, 3604.00
1777, 3603.00
1778, 3603.00
1779, 3601.00
1780, 3600.00
1781, 3600.00
1782, 3598.00
1783, 3598.00
1784, 3597.00
1785, 3597.00
1786, 3596.00
1787, 3596.00
1788, 3594.00
1789, 3595.00
1790, 3593.00
1791, 3593.00
1792, 3593.00
1793, 3590.00
1794, 3590.00
1795, 3589.00
1796, 3588.00
1797, 3588.00
1798, 3589.00
1799, 3586.00
1800, 3585.00
1801, 3587.00
1802, 3585.00
1803, 3586.00
1804, 3585.00
1805, 3581.00
1806, 3581.00
1807, 3580.00
1808, 3580.00
1809, 3577.00
1810, 3579.00
1811, 3577.00
1812, 3576.00
1813, 3575.00
1814, 3577.00
1815, 3577.00
1816, 3574.00
1817, 3573.00
1818, 3570.00
1819, 3570.00
1820, 3567.00
1821, 3567.00
1822, 3567.00
1823, 3565.00
1824, 3562.00
1825, 3561.00
1826, 3560.00
1827, 3558.00
1828, 3557.00
1829, 3551.00
1830, 3551.00
1831, 3549.00
1832, 3546.00
1833, 3544.00
1834, 3541.00
1835, 3537.00
1836, 3535.00
1837, 3535.00
1838, 3530.00
1839, 3525.00
1840, 3522.00
1841, 3521.00
1842, 3519.00
1843, 3515.00
1844, 3512.00
1845, 3508.00
1846, 3505.00
1847, 3502.00
1848, 3499.00
1849, 3492.00
1850, 3489.00
1851, 3487.00
1852, 3483.00
1853, 3481.00
1854, 3475.00
1855, 3474.00
1856, 3472.00
1857, 3467.00
1858, 3462.00
1859, 3459.00
1860, 3457.00
1861, 3455.00
1862, 3452.00
1863, 3447.00
1864, 3445.00
1865, 3445.00
1866, 3442.00
1867, 3437.00
1868, 3434.00
1869, 3431.00
1870, 3432.00
1871, 3429.00
1872, 3423.00
1873, 3427.00
1874, 3423.00
1875, 3421.00
1876, 3420.00
1877, 3420.00
1878, 3417.00
1879, 3416.00
1880, 3413.00
1881, 3414.00
1882, 3412.00
1883, 3411.00
1884, 3410.00
1885, 3409.00
1886, 3406.00
1887, 3407.00
1888, 3406.00
1889, 3406.00
1890, 3404.00
1891, 3404.00
1892, 3403.00
1893, 3401.00
1894, 3400.00
1895, 3400.00
1896, 3399.00
1897, 3399.00
1898, 3397.00
1899, 3397.00
1900, 3398.00
1901, 3396.00
1902, 3395.00
1903, 3395.00
1904, 3396.00
1905, 3394.00
1906, 3394.00
1907, 3393.00
1908, 3392.00
1909, 3392.00
1910, 3393.00
1911, 3391.00
1912, 3392.00
1913, 3390.00
1914, 3392.00
1915, 3391.00
1916, 3392.00
1917, 3391.00
1918, 3391.00
1919, 3391.00
1920, 3390.00
1921, 3390.00
1922, 3391.00
1923, 3390.00
1924, 3391.00
1925, 3390.00
1926, 3389.00
1927, 3390.00
1928, 3389.00
1929, 3392.00
1930, 3392.00
1931, 3392.00
1932, 3389.00
1933, 3391.00
1934, 3389.00
1935, 3390.00
1936, 3390.00
1937, 3393.00
1938, 3392.00
1939, 3391.00
1940, 3393.00
1941, 3391.00
1942, 3392.00
1943, 3393.00
1944, 3393.00
1945, 3393.00
1946, 3392.00
1947, 3395.00
1948, 3395.00
1949, 3395.00
1950, 3396.00
1951, 3396.00
1952, 3397.00
1953, 3397.00
1954, 3399.00
1955, 3398.00
1956, 3399.00
1957, 3400.00
1958, 3401.00
1959, 3401.00
1960, 3402.00
1961, 3402.00
1962, 3403.00
1963, 3404.00
1964, 3403.00
1965, 3406.00
1966, 3404.00
1967, 3407.00
1968, 3406.00
1969, 3409.00
1970, 3409.00
1971, 3409.00
1972, 3411.00
1973, 3413.00
1974, 3411.00
1975, 3413.00
1976, 3415.00
1977, 3413.00
1978, 3414.00
1979, 3413.00
1980, 3419.00
1981, 3418.00
1982, 3417.00
1983, 3419.00
1984, 3420.00
1985, 3420.00
1986, 3423.00
1987, 3423.00
1988, 3424.00
1989, 3424.00
1990, 3425.00
1991, 3427.00
1992, 3426.00
1993, 3429.00
1994, 3429.00
1995, 3430.00
1996, 3430.00
1997, 3429.00
1998, 3431.00
1999, 3433.00
2000, 3434.00
2001, 3435.00
2002, 3436.00
2003, 3437.00
2004, 3439.00
2005, 3437.00
2006, 3441.00
2007, 3439.00
2008, 3439.00
2009, 3441.00
2010, 3442.00
2011, 3443.00
2012, 3442.00
2013, 3443.00
2014, 3445.00
2015, 3448.00
2016, 3448.00
2017, 3447.00
2018, 3448.00
2019, 3451.00
2020, 3453.00
2021, 3452.00
2022, 3453.00
2023, 3452.00
2024, 3453.00
2025, 3455.00
2026, 3455.00
2027, 3455.00
2028, 3459.00
2029, 3460.00
2030, 3459.00
2031, 3459.00
2032, 3459.00
2033, 3463.00
2034, 3463.00
2035, 3463.00
2036, 3467.00
2037, 3467.00
2038, 3466.00
2039, 3468.00
2040, 3468.00
2041, 3471.00
2042, 3471.00
2043, 3474.00
2044, 3475.00
2045, 3475.00
2046, 3476.00
2047, 3478.00
2048, 3476.00
2049, 3479.00
2050, 3481.00
2051, 3483.00
2052, 3485.00
2053, 3484.00
2054, 3487.00
2055, 3488.00
2056, 3489.00
2057, 3490.00
2058, 3491.00
2059, 3493.00
2060, 3495.00
2061, 3495.00
2062, 3496.00
2063, 3500.00
2064, 3500.00
2065, 3499.00
2066, 3501.00
2067, 3501.00
2068, 3503.00
2069, 3503.00
2070, 3505.00
2071, 3507.00
2072, 3509.00
2073, 3509.00
2074, 3509.00
2075, 3510.00
2076, 3513.00
2077, 3514.00
2078, 3515.00
2079, 3516.00
2080, 3517.00
2081, 3519.00
2082, 3519.00
2083, 3520.00
2084, 3523.00
2085, 3522.00
2086, 3521.00
2087, 3524.00
2088, 3525.00
2089, 3524.00
2090, 3525.00
2091, 3530.00
2092, 3529.00
2093, 3531.00
2094, 3530.00
2095, 3533.00
2096, 3533.00
2097, 3534.00
2098, 3533.00
2099, 3535.00
2100, 3535.00
2101, 3537.00
2102, 3537.00
2103, 3539.00
2104, 3537.00
2105, 3539.00
2106, 3539.00
2107, 3541.00
2108, 3541.00
2109, 3541.00
2110, 3541.00
2111, 3542.00
2112, 3542.00
2113, 3543.00
2114, 3543.00
2115, 3545.00
2116, 3545.00
2117, 3545.00
2118, 3545.00
2119, 3546.00
2120, 3547.00
2121, 3547.00
2122, 3550.00
2123, 3550.00
2124, 3550.00
2125, 3548.00
2126, 3549.00
2127, 3552.00
2128, 3551.00
2129, 3553.00
2130, 3551.00
2131, 3553.00
2132, 3553.00
2133, 3552.00
2134, 3555.00
2135, 3556.00
2136, 3555.00
2137, 3556.00
2138, 3554.00
2139, 3557.00
2140, 3558.00
2141, 3557.00
2142, 3559.00
2143, 3559.00
2144, 3559.00
2145, 3560.00
2146, 3559.00
2147, 3561.00
2148, 3560.00
2149, 3561.00
2150, 3562.00
