FW version: 24
Log Version: 3.0.3

General Info:
       Command/Macro Performed,            Timestamp,             Device ID, COM Port, UART/I2C, Test Name, Host Major, Host Minor, Host Revision, Host Git Commit
            Single_measurement,  2023_07_11_11_43_05,       Insight2_F4_xxx,    USB-C,      USB,          ,          0,          1,             1,      4031237645

Show Spectrometer Status:
l0_version, f4_version, battery_perc, battery_mVolt, accelerometer_temp, accelerometer_x, accelerometer_y, accelerometer_z, compass_temp, compass_x, compass_y, compass_z, lamp_0, lamp_1, gain_0, gain_1
        17,         24,           51,          1911,               7024,           65208,            1236,           18860,            0,     65471,     65494,     18940,   3276,   3276,      1,      1

Temperature Statistic Info:
NTC AVG [°C], NTC2 AVG [°C]
      42.343,        42.010

Statistic Info:
M1:  num,      min,      max,   median,      AVG,      STD,M2:  num,      min,      max,   median,      AVG,      STD
     301,  2617.00,  2999.00,  2698.00,  2743.51, 119.2443,     401,  3388.00,  3615.00,  3484.00,  3488.75,  73.6193,

Measurements:
Wavelength, Data Amplitude
1350, 2683.00
1351, 2683.00
1352, 2682.00
1353, 2680.00
1354, 2679.00
1355, 2678.00
1356, 2678.00
1357, 2675.00
1358, 2674.00
1359, 2671.00
1360, 2671.00
1361, 2670.00
1362, 2667.00
1363, 2665.00
1364, 2664.00
1365, 2663.00
1366, 2661.00
1367, 2658.00
1368, 2657.00
1369, 2656.00
1370, 2653.00
1371, 2652.00
1372, 2649.00
1373, 2647.00
1374, 2647.00
1375, 2644.00
1376, 2643.00
1377, 2641.00
1378, 2641.00
1379, 2640.00
1380, 2638.00
1381, 2637.00
1382, 2635.00
1383, 2634.00
1384, 2631.00
1385, 2632.00
1386, 2631.00
1387, 2629.00
1388, 2627.00
1389, 2627.00
1390, 2628.00
1391, 2625.00
1392, 2625.00
1393, 2625.00
1394, 2625.00
1395, 2624.00
1396, 2623.00
1397, 2623.00
1398, 2623.00
1399, 2621.00
1400, 2621.00
1401, 2621.00
1402, 2621.00
1403, 2621.00
1404, 2620.00
1405, 2620.00
1406, 2620.00
1407, 2619.00
1408, 2618.00
1409, 2618.00
1410, 2619.00
1411, 2617.00
1412, 2617.00
1413, 2617.00
1414, 2618.00
1415, 2617.00
1416, 2618.00
1417, 2618.00
1418, 2617.00
1419, 2617.00
1420, 2618.00
1421, 2618.00
1422, 2618.00
1423, 2618.00
1424, 2619.00
1425, 2619.00
1426, 2619.00
1427, 2619.00
1428, 2620.00
1429, 2620.00
1430, 2620.00
1431, 2620.00
1432, 2621.00
1433, 2621.00
1434, 2622.00
1435, 2622.00
1436, 2623.00
1437, 2623.00
1438, 2624.00
1439, 2624.00
1440, 2625.00
1441, 2626.00
1442, 2626.00
1443, 2627.00
1444, 2628.00
1445, 2629.00
1446, 2629.00
1447, 2630.00
1448, 2631.00
1449, 2632.00
1450, 2633.00
1451, 2633.00
1452, 2635.00
1453, 2634.00
1454, 2636.00
1455, 2637.00
1456, 2637.00
1457, 2638.00
1458, 2639.00
1459, 2641.00
1460, 2641.00
1461, 2642.00
1462, 2643.00
1463, 2645.00
1464, 2645.00
1465, 2646.00
1466, 2648.00
1467, 2647.00
1468, 2649.00
1469, 2652.00
1470, 2652.00
1471, 2656.00
1472, 2656.00
1473, 2656.00
1474, 2659.00
1475, 2659.00
1476, 2661.00
1477, 2663.00
1478, 2665.00
1479, 2665.00
1480, 2666.00
1481, 2669.00
1482, 2670.00
1483, 2672.00
1484, 2674.00
1485, 2674.00
1486, 2675.00
1487, 2677.00
1488, 2679.00
1489, 2681.00
1490, 2683.00
1491, 2683.00
1492, 2686.00
1493, 2687.00
1494, 2689.00
1495, 2691.00
1496, 2690.00
1497, 2692.00
1498, 2695.00
1499, 2696.00
1500, 2699.00
1501, 2698.00
1502, 2700.00
1503, 2702.00
1504, 2704.00
1505, 2706.00
1506, 2706.00
1507, 2708.00
1508, 2710.00
1509, 2711.00
1510, 2713.00
1511, 2715.00
1512, 2717.00
1513, 2717.00
1514, 2721.00
1515, 2721.00
1516, 2725.00
1517, 2725.00
1518, 2728.00
1519, 2730.00
1520, 2731.00
1521, 2733.00
1522, 2735.00
1523, 2736.00
1524, 2739.00
1525, 2739.00
1526, 2742.00
1527, 2744.00
1528, 2746.00
1529, 2747.00
1530, 2749.00
1531, 2752.00
1532, 2754.00
1533, 2755.00
1534, 2756.00
1535, 2759.00
1536, 2762.00
1537, 2763.00
1538, 2765.00
1539, 2767.00
1540, 2769.00
1541, 2772.00
1542, 2773.00
1543, 2775.00
1544, 2776.00
1545, 2779.00
1546, 2781.00
1547, 2782.00
1548, 2784.00
1549, 2787.00
1550, 2789.00
1551, 2791.00
1552, 2793.00
1553, 2795.00
1554, 2797.00
1555, 2798.00
1556, 2803.00
1557, 2805.00
1558, 2806.00
1559, 2809.00
1560, 2810.00
1561, 2813.00
1562, 2814.00
1563, 2816.00
1564, 2819.00
1565, 2821.00
1566, 2823.00
1567, 2825.00
1568, 2828.00
1569, 2830.00
1570, 2832.00
1571, 2834.00
1572, 2836.00
1573, 2839.00
1574, 2840.00
1575, 2843.00
1576, 2845.00
1577, 2846.00
1578, 2850.00
1579, 2850.00
1580, 2853.00
1581, 2855.00
1582, 2857.00
1583, 2859.00
1584, 2861.00
1585, 2862.00
1586, 2864.00
1587, 2866.00
1588, 2868.00
1589, 2869.00
1590, 2871.00
1591, 2871.00
1592, 2875.00
1593, 2877.00
1594, 2879.00
1595, 2880.00
1596, 2883.00
1597, 2885.00
1598, 2886.00
1599, 2888.00
1600, 2890.00
1601, 2893.00
1602, 2895.00
1603, 2896.00
1604, 2897.00
1605, 2901.00
1606, 2903.00
1607, 2906.00
1608, 2907.00
1609, 2909.00
1610, 2913.00
1611, 2915.00
1612, 2918.00
1613, 2919.00
1614, 2922.00
1615, 2923.00
1616, 2926.00
1617, 2929.00
1618, 2929.00
1619, 2933.00
1620, 2936.00
1621, 2939.00
1622, 2941.00
1623, 2943.00
1624, 2945.00
1625, 2947.00
1626, 2950.00
1627, 2952.00
1628, 2954.00
1629, 2955.00
1630, 2959.00
1631, 2962.00
1632, 2963.00
1633, 2965.00
1634, 2967.00
1635, 2968.00
1636, 2972.00
1637, 2973.00
1638, 2975.00
1639, 2976.00
1640, 2979.00
1641, 2981.00
1642, 2982.00
1643, 2985.00
1644, 2986.00
1645, 2989.00
1646, 2989.00
1647, 2993.00
1648, 2994.00
1649, 2996.00
1650, 2999.00

1750, 3613.00
1751, 3613.00
1752, 3615.00
1753, 3612.00
1754, 3613.00
1755, 3612.00
1756, 3614.00
1757, 3614.00
1758, 3611.00
1759, 3610.00
1760, 3613.00
1761, 3612.00
1762, 3613.00
1763, 3612.00
1764, 3609.00
1765, 3611.00
1766, 3611.00
1767, 3607.00
1768, 3609.00
1769, 3609.00
1770, 3609.00
1771, 3607.00
1772, 3608.00
1773, 3606.00
1774, 3605.00
1775, 3604.00
1776, 3604.00
1777, 3603.00
1778, 3605.00
1779, 3603.00
1780, 3602.00
1781, 3601.00
1782, 3599.00
1783, 3599.00
1784, 3597.00
1785, 3598.00
1786, 3596.00
1787, 3595.00
1788, 3595.00
1789, 3594.00
1790, 3595.00
1791, 3593.00
1792, 3592.00
1793, 3592.00
1794, 3593.00
1795, 3590.00
1796, 3591.00
1797, 3588.00
1798, 3587.00
1799, 3588.00
1800, 3585.00
1801, 3587.00
1802, 3585.00
1803, 3583.00
1804, 3584.00
1805, 3583.00
1806, 3583.00
1807, 3583.00
1808, 3580.00
1809, 3579.00
1810, 3579.00
1811, 3579.00
1812, 3579.00
1813, 3577.00
1814, 3574.00
1815, 3575.00
1816, 3574.00
1817, 3576.00
1818, 3570.00
1819, 3572.00
1820, 3570.00
1821, 3568.00
1822, 3569.00
1823, 3565.00
1824, 3563.00
1825, 3560.00
1826, 3561.00
1827, 3557.00
1828, 3556.00
1829, 3553.00
1830, 3552.00
1831, 3549.00
1832, 3547.00
1833, 3545.00
1834, 3540.00
1835, 3539.00
1836, 3536.00
1837, 3534.00
1838, 3530.00
1839, 3529.00
1840, 3524.00
1841, 3523.00
1842, 3520.00
1843, 3515.00
1844, 3511.00
1845, 3510.00
1846, 3504.00
1847, 3503.00
1848, 3497.00
1849, 3495.00
1850, 3491.00
1851, 3489.00
1852, 3485.00
1853, 3479.00
1854, 3476.00
1855, 3475.00
1856, 3471.00
1857, 3469.00
1858, 3463.00
1859, 3461.00
1860, 3461.00
1861, 3453.00
1862, 3451.00
1863, 3449.00
1864, 3447.00
1865, 3442.00
1866, 3439.00
1867, 3440.00
1868, 3437.00
1869, 3433.00
1870, 3431.00
1871, 3429.00
1872, 3428.00
1873, 3423.00
1874, 3426.00
1875, 3422.00
1876, 3420.00
1877, 3418.00
1878, 3418.00
1879, 3415.00
1880, 3415.00
1881, 3415.00
1882, 3413.00
1883, 3411.00
1884, 3410.00
1885, 3409.00
1886, 3407.00
1887, 3406.00
1888, 3407.00
1889, 3405.00
1890, 3405.00
1891, 3403.00
1892, 3400.00
1893, 3403.00
1894, 3401.00
1895, 3400.00
1896, 3399.00
1897, 3399.00
1898, 3400.00
1899, 3399.00
1900, 3397.00
1901, 3397.00
1902, 3395.00
1903, 3399.00
1904, 3395.00
1905, 3397.00
1906, 3395.00
1907, 3396.00
1908, 3392.00
1909, 3393.00
1910, 3393.00
1911, 3393.00
1912, 3392.00
1913, 3393.00
1914, 3394.00
1915, 3392.00
1916, 3392.00
1917, 3393.00
1918, 3390.00
1919, 3390.00
1920, 3393.00
1921, 3391.00
1922, 3391.00
1923, 3389.00
1924, 3388.00
1925, 3390.00
1926, 3393.00
1927, 3390.00
1928, 3389.00
1929, 3390.00
1930, 3389.00
1931, 3391.00
1932, 3390.00
1933, 3390.00
1934, 3391.00
1935, 3392.00
1936, 3392.00
1937, 3393.00
1938, 3392.00
1939, 3392.00
1940, 3391.00
1941, 3393.00
1942, 3391.00
1943, 3394.00
1944, 3393.00
1945, 3394.00
1946, 3395.00
1947, 3393.00
1948, 3394.00
1949, 3396.00
1950, 3394.00
1951, 3397.00
1952, 3396.00
1953, 3395.00
1954, 3398.00
1955, 3398.00
1956, 3399.00
1957, 3400.00
1958, 3398.00
1959, 3401.00
1960, 3403.00
1961, 3403.00
1962, 3402.00
1963, 3403.00
1964, 3404.00
1965, 3403.00
1966, 3405.00
1967, 3406.00
1968, 3408.00
1969, 3409.00
1970, 3407.00
1971, 3410.00
1972, 3410.00
1973, 3410.00
1974, 3413.00
1975, 3411.00
1976, 3413.00
1977, 3413.00
1978, 3416.00
1979, 3415.00
1980, 3416.00
1981, 3417.00
1982, 3418.00
1983, 3418.00
1984, 3421.00
1985, 3422.00
1986, 3421.00
1987, 3421.00
1988, 3425.00
1989, 3426.00
1990, 3424.00
1991, 3427.00
1992, 3427.00
1993, 3427.00
1994, 3430.00
1995, 3431.00
1996, 3428.00
1997, 3433.00
1998, 3433.00
1999, 3431.00
2000, 3433.00
2001, 3437.00
2002, 3435.00
2003, 3436.00
2004, 3440.00
2005, 3437.00
2006, 3437.00
2007, 3439.00
2008, 3441.00
2009, 3440.00
2010, 3442.00
2011, 3443.00
2012, 3446.00
2013, 3445.00
2014, 3446.00
2015, 3446.00
2016, 3449.00
2017, 3450.00
2018, 3450.00
2019, 3450.00
2020, 3449.00
2021, 3452.00
2022, 3450.00
2023, 3453.00
2024, 3454.00
2025, 3451.00
2026, 3456.00
2027, 3458.00
2028, 3459.00
2029, 3459.00
2030, 3460.00
2031, 3461.00
2032, 3462.00
2033, 3463.00
2034, 3464.00
2035, 3464.00
2036, 3464.00
2037, 3467.00
2038, 3467.00
2039, 3468.00
2040, 3471.00
2041, 3469.00
2042, 3473.00
2043, 3473.00
2044, 3475.00
2045, 3477.00
2046, 3476.00
2047, 3478.00
2048, 3480.00
2049, 3481.00
2050, 3482.00
2051, 3480.00
2052, 3484.00
2053, 3483.00
2054, 3486.00
2055, 3488.00
2056, 3488.00
2057, 3490.00
2058, 3491.00
2059, 3492.00
2060, 3495.00
2061, 3493.00
2062, 3497.00
2063, 3499.00
2064, 3497.00
2065, 3499.00
2066, 3503.00
2067, 3503.00
2068, 3503.00
2069, 3503.00
2070, 3505.00
2071, 3505.00
2072, 3509.00
2073, 3509.00
2074, 3511.00
2075, 3513.00
2076, 3511.00
2077, 3513.00
2078, 3514.00
2079, 3516.00
2080, 3518.00
2081, 3518.00
2082, 3520.00
2083, 3519.00
2084, 3521.00
2085, 3522.00
2086, 3524.00
2087, 3523.00
2088, 3526.00
2089, 3527.00
2090, 3527.00
2091, 3528.00
2092, 3528.00
2093, 3529.00
2094, 3531.00
2095, 3530.00
2096, 3533.00
2097, 3535.00
2098, 3534.00
2099, 3535.00
2100, 3535.00
2101, 3538.00
2102, 3536.00
2103, 3538.00
2104, 3539.00
2105, 3537.00
2106, 3540.00
2107, 3537.00
2108, 3539.00
2109, 3543.00
2110, 3542.00
2111, 3542.00
2112, 3543.00
2113, 3545.00
2114, 3544.00
2115, 3542.00
2116, 3546.00
2117, 3544.00
2118, 3549.00
2119, 3547.00
2120, 3547.00
2121, 3549.00
2122, 3547.00
2123, 3549.00
2124, 3552.00
2125, 3550.00
2126, 3551.00
2127, 3551.00
2128, 3549.00
2129, 3553.00
2130, 3552.00
2131, 3555.00
2132, 3553.00
2133, 3553.00
2134, 3555.00
2135, 3555.00
2136, 3554.00
2137, 3556.00
2138, 3558.00
2139, 3555.00
2140, 3559.00
2141, 3554.00
2142, 3561.00
2143, 3559.00
2144, 3559.00
2145, 3561.00
2146, 3560.00
2147, 3559.00
2148, 3561.00
2149, 3562.00
2150, 3563.00
