FW version: 24
Log Version: 3.0.3

General Info:
       Command/Macro Performed,            Timestamp,             Device ID, COM Port, UART/I2C, Test Name, Host Major, Host Minor, Host Revision, Host Git Commit
            Single_measurement,  2023_07_04_11_49_01,       Insight2_F4_xxx,    USB-C,      USB,          ,          0,          1,             1,      4031237645

Show Spectrometer Status:
l0_version, f4_version, battery_perc, battery_mVolt, accelerometer_temp, accelerometer_x, accelerometer_y, accelerometer_z, compass_temp, compass_x, compass_y, compass_z, lamp_0, lamp_1, gain_0, gain_1
        17,         24,           35,          1882,               6224,               8,            2544,           19008,            0,     65407,     65521,     19058,   2457,   2457,      1,      1

Temperature Statistic Info:
NTC AVG [°C], NTC2 AVG [°C]
      38.882,        38.537

Statistic Info:
M1:  num,      min,      max,   median,      AVG,      STD,M2:  num,      min,      max,   median,      AVG,      STD
     301,   934.00,  1061.00,   964.00,   976.61,  39.1089,     401,  1388.00,  1463.00,  1429.00,  1427.27,  26.2544,

Measurements:
Wavelength, Data Amplitude
1350, 948.00
1351, 949.00
1352, 948.00
1353, 948.00
1354, 948.00
1355, 948.00
1356, 948.00
1357, 947.00
1358, 947.00
1359, 946.00
1360, 946.00
1361, 946.00
1362, 945.00
1363, 945.00
1364, 944.00
1365, 945.00
1366, 944.00
1367, 944.00
1368, 943.00
1369, 943.00
1370, 943.00
1371, 943.00
1372, 942.00
1373, 941.00
1374, 941.00
1375, 943.00
1376, 940.00
1377, 940.00
1378, 939.00
1379, 939.00
1380, 939.00
1381, 939.00
1382, 939.00
1383, 938.00
1384, 938.00
1385, 939.00
1386, 937.00
1387, 937.00
1388, 937.00
1389, 938.00
1390, 936.00
1391, 936.00
1392, 936.00
1393, 937.00
1394, 936.00
1395, 936.00
1396, 936.00
1397, 936.00
1398, 936.00
1399, 935.00
1400, 936.00
1401, 935.00
1402, 936.00
1403, 936.00
1404, 935.00
1405, 934.00
1406, 935.00
1407, 936.00
1408, 935.00
1409, 936.00
1410, 935.00
1411, 936.00
1412, 936.00
1413, 936.00
1414, 936.00
1415, 935.00
1416, 935.00
1417, 935.00
1418, 936.00
1419, 936.00
1420, 936.00
1421, 935.00
1422, 936.00
1423, 936.00
1424, 937.00
1425, 935.00
1426, 936.00
1427, 936.00
1428, 937.00
1429, 936.00
1430, 936.00
1431, 936.00
1432, 937.00
1433, 938.00
1434, 938.00
1435, 937.00
1436, 937.00
1437, 939.00
1438, 939.00
1439, 939.00
1440, 939.00
1441, 938.00
1442, 939.00
1443, 939.00
1444, 940.00
1445, 940.00
1446, 940.00
1447, 941.00
1448, 941.00
1449, 941.00
1450, 941.00
1451, 942.00
1452, 942.00
1453, 944.00
1454, 943.00
1455, 943.00
1456, 943.00
1457, 944.00
1458, 944.00
1459, 944.00
1460, 945.00
1461, 945.00
1462, 945.00
1463, 946.00
1464, 947.00
1465, 947.00
1466, 948.00
1467, 947.00
1468, 948.00
1469, 948.00
1470, 949.00
1471, 949.00
1472, 949.00
1473, 951.00
1474, 950.00
1475, 951.00
1476, 952.00
1477, 951.00
1478, 953.00
1479, 952.00
1480, 954.00
1481, 954.00
1482, 954.00
1483, 954.00
1484, 955.00
1485, 956.00
1486, 956.00
1487, 957.00
1488, 958.00
1489, 958.00
1490, 959.00
1491, 959.00
1492, 961.00
1493, 960.00
1494, 962.00
1495, 962.00
1496, 963.00
1497, 963.00
1498, 964.00
1499, 964.00
1500, 965.00
1501, 964.00
1502, 966.00
1503, 965.00
1504, 966.00
1505, 966.00
1506, 967.00
1507, 968.00
1508, 969.00
1509, 969.00
1510, 969.00
1511, 969.00
1512, 971.00
1513, 970.00
1514, 972.00
1515, 973.00
1516, 973.00
1517, 973.00
1518, 974.00
1519, 974.00
1520, 975.00
1521, 976.00
1522, 977.00
1523, 978.00
1524, 979.00
1525, 979.00
1526, 980.00
1527, 980.00
1528, 980.00
1529, 980.00
1530, 981.00
1531, 982.00
1532, 982.00
1533, 984.00
1534, 984.00
1535, 983.00
1536, 985.00
1537, 986.00
1538, 986.00
1539, 987.00
1540, 987.00
1541, 989.00
1542, 989.00
1543, 990.00
1544, 990.00
1545, 990.00
1546, 990.00
1547, 991.00
1548, 991.00
1549, 993.00
1550, 993.00
1551, 993.00
1552, 995.00
1553, 994.00
1554, 995.00
1555, 997.00
1556, 997.00
1557, 997.00
1558, 998.00
1559, 998.00
1560, 999.00
1561, 1000.00
1562, 1000.00
1563, 1001.00
1564, 1001.00
1565, 1003.00
1566, 1003.00
1567, 1004.00
1568, 1004.00
1569, 1005.00
1570, 1005.00
1571, 1006.00
1572, 1007.00
1573, 1008.00
1574, 1008.00
1575, 1009.00
1576, 1010.00
1577, 1010.00
1578, 1010.00
1579, 1010.00
1580, 1012.00
1581, 1012.00
1582, 1013.00
1583, 1013.00
1584, 1013.00
1585, 1014.00
1586, 1015.00
1587, 1015.00
1588, 1016.00
1589, 1016.00
1590, 1018.00
1591, 1017.00
1592, 1019.00
1593, 1020.00
1594, 1020.00
1595, 1020.00
1596, 1021.00
1597, 1021.00
1598, 1022.00
1599, 1023.00
1600, 1024.00
1601, 1024.00
1602, 1026.00
1603, 1027.00
1604, 1027.00
1605, 1028.00
1606, 1028.00
1607, 1030.00
1608, 1030.00
1609, 1029.00
1610, 1031.00
1611, 1030.00
1612, 1033.00
1613, 1033.00
1614, 1034.00
1615, 1034.00
1616, 1035.00
1617, 1036.00
1618, 1037.00
1619, 1038.00
1620, 1038.00
1621, 1040.00
1622, 1041.00
1623, 1041.00
1624, 1042.00
1625, 1043.00
1626, 1044.00
1627, 1044.00
1628, 1045.00
1629, 1045.00
1630, 1047.00
1631, 1047.00
1632, 1048.00
1633, 1048.00
1634, 1048.00
1635, 1051.00
1636, 1052.00
1637, 1052.00
1638, 1052.00
1639, 1054.00
1640, 1053.00
1641, 1054.00
1642, 1055.00
1643, 1056.00
1644, 1056.00
1645, 1057.00
1646, 1057.00
1647, 1057.00
1648, 1058.00
1649, 1060.00
1650, 1061.00

1750, 1462.00
1751, 1463.00
1752, 1461.00
1753, 1462.00
1754, 1462.00
1755, 1461.00
1756, 1462.00
1757, 1463.00
1758, 1462.00
1759, 1463.00
1760, 1463.00
1761, 1462.00
1762, 1462.00
1763, 1462.00
1764, 1463.00
1765, 1463.00
1766, 1461.00
1767, 1462.00
1768, 1462.00
1769, 1461.00
1770, 1462.00
1771, 1460.00
1772, 1461.00
1773, 1461.00
1774, 1461.00
1775, 1460.00
1776, 1461.00
1777, 1459.00
1778, 1460.00
1779, 1460.00
1780, 1459.00
1781, 1459.00
1782, 1459.00
1783, 1458.00
1784, 1459.00
1785, 1458.00
1786, 1458.00
1787, 1459.00
1788, 1456.00
1789, 1455.00
1790, 1456.00
1791, 1457.00
1792, 1455.00
1793, 1456.00
1794, 1455.00
1795, 1455.00
1796, 1455.00
1797, 1455.00
1798, 1455.00
1799, 1453.00
1800, 1454.00
1801, 1455.00
1802, 1456.00
1803, 1453.00
1804, 1454.00
1805, 1454.00
1806, 1454.00
1807, 1453.00
1808, 1452.00
1809, 1452.00
1810, 1452.00
1811, 1454.00
1812, 1453.00
1813, 1453.00
1814, 1452.00
1815, 1452.00
1816, 1452.00
1817, 1450.00
1818, 1450.00
1819, 1452.00
1820, 1451.00
1821, 1451.00
1822, 1450.00
1823, 1449.00
1824, 1449.00
1825, 1449.00
1826, 1449.00
1827, 1447.00
1828, 1446.00
1829, 1447.00
1830, 1447.00
1831, 1445.00
1832, 1447.00
1833, 1443.00
1834, 1442.00
1835, 1442.00
1836, 1443.00
1837, 1442.00
1838, 1440.00
1839, 1440.00
1840, 1438.00
1841, 1438.00
1842, 1437.00
1843, 1435.00
1844, 1434.00
1845, 1434.00
1846, 1432.00
1847, 1431.00
1848, 1429.00
1849, 1429.00
1850, 1428.00
1851, 1427.00
1852, 1425.00
1853, 1425.00
1854, 1424.00
1855, 1421.00
1856, 1419.00
1857, 1419.00
1858, 1416.00
1859, 1416.00
1860, 1414.00
1861, 1415.00
1862, 1412.00
1863, 1412.00
1864, 1410.00
1865, 1409.00
1866, 1409.00
1867, 1408.00
1868, 1406.00
1869, 1404.00
1870, 1405.00
1871, 1403.00
1872, 1405.00
1873, 1403.00
1874, 1402.00
1875, 1399.00
1876, 1399.00
1877, 1398.00
1878, 1397.00
1879, 1397.00
1880, 1399.00
1881, 1396.00
1882, 1396.00
1883, 1396.00
1884, 1393.00
1885, 1395.00
1886, 1396.00
1887, 1396.00
1888, 1395.00
1889, 1395.00
1890, 1393.00
1891, 1393.00
1892, 1392.00
1893, 1390.00
1894, 1392.00
1895, 1393.00
1896, 1391.00
1897, 1391.00
1898, 1392.00
1899, 1392.00
1900, 1391.00
1901, 1392.00
1902, 1391.00
1903, 1389.00
1904, 1390.00
1905, 1391.00
1906, 1388.00
1907, 1389.00
1908, 1389.00
1909, 1390.00
1910, 1391.00
1911, 1390.00
1912, 1389.00
1913, 1388.00
1914, 1390.00
1915, 1390.00
1916, 1390.00
1917, 1389.00
1918, 1389.00
1919, 1389.00
1920, 1389.00
1921, 1389.00
1922, 1388.00
1923, 1388.00
1924, 1389.00
1925, 1389.00
1926, 1389.00
1927, 1390.00
1928, 1390.00
1929, 1391.00
1930, 1390.00
1931, 1389.00
1932, 1390.00
1933, 1389.00
1934, 1390.00
1935, 1388.00
1936, 1391.00
1937, 1390.00
1938, 1389.00
1939, 1389.00
1940, 1389.00
1941, 1392.00
1942, 1389.00
1943, 1392.00
1944, 1390.00
1945, 1391.00
1946, 1391.00
1947, 1392.00
1948, 1394.00
1949, 1393.00
1950, 1393.00
1951, 1393.00
1952, 1394.00
1953, 1393.00
1954, 1393.00
1955, 1394.00
1956, 1396.00
1957, 1395.00
1958, 1395.00
1959, 1397.00
1960, 1395.00
1961, 1395.00
1962, 1396.00
1963, 1397.00
1964, 1397.00
1965, 1397.00
1966, 1397.00
1967, 1399.00
1968, 1399.00
1969, 1398.00
1970, 1399.00
1971, 1398.00
1972, 1399.00
1973, 1400.00
1974, 1399.00
1975, 1401.00
1976, 1402.00
1977, 1399.00
1978, 1403.00
1979, 1403.00
1980, 1402.00
1981, 1401.00
1982, 1401.00
1983, 1405.00
1984, 1405.00
1985, 1404.00
1986, 1404.00
1987, 1405.00
1988, 1407.00
1989, 1405.00
1990, 1406.00
1991, 1408.00
1992, 1407.00
1993, 1407.00
1994, 1407.00
1995, 1409.00
1996, 1407.00
1997, 1409.00
1998, 1409.00
1999, 1409.00
2000, 1411.00
2001, 1410.00
2002, 1410.00
2003, 1412.00
2004, 1410.00
2005, 1411.00
2006, 1412.00
2007, 1412.00
2008, 1413.00
2009, 1411.00
2010, 1414.00
2011, 1413.00
2012, 1414.00
2013, 1413.00
2014, 1415.00
2015, 1417.00
2016, 1416.00
2017, 1416.00
2018, 1415.00
2019, 1416.00
2020, 1415.00
2021, 1416.00
2022, 1418.00
2023, 1418.00
2024, 1420.00
2025, 1418.00
2026, 1420.00
2027, 1420.00
2028, 1420.00
2029, 1421.00
2030, 1421.00
2031, 1421.00
2032, 1421.00
2033, 1420.00
2034, 1422.00
2035, 1424.00
2036, 1423.00
2037, 1423.00
2038, 1424.00
2039, 1424.00
2040, 1425.00
2041, 1425.00
2042, 1426.00
2043, 1424.00
2044, 1427.00
2045, 1428.00
2046, 1427.00
2047, 1429.00
2048, 1427.00
2049, 1429.00
2050, 1430.00
2051, 1431.00
2052, 1431.00
2053, 1430.00
2054, 1432.00
2055, 1432.00
2056, 1432.00
2057, 1435.00
2058, 1434.00
2059, 1437.00
2060, 1437.00
2061, 1436.00
2062, 1435.00
2063, 1436.00
2064, 1437.00
2065, 1437.00
2066, 1437.00
2067, 1438.00
2068, 1441.00
2069, 1441.00
2070, 1440.00
2071, 1440.00
2072, 1440.00
2073, 1442.00
2074, 1442.00
2075, 1441.00
2076, 1443.00
2077, 1441.00
2078, 1444.00
2079, 1445.00
2080, 1445.00
2081, 1445.00
2082, 1445.00
2083, 1446.00
2084, 1446.00
2085, 1446.00
2086, 1447.00
2087, 1447.00
2088, 1448.00
2089, 1447.00
2090, 1449.00
2091, 1450.00
2092, 1449.00
2093, 1447.00
2094, 1449.00
2095, 1450.00
2096, 1449.00
2097, 1451.00
2098, 1452.00
2099, 1453.00
2100, 1451.00
2101, 1451.00
2102, 1452.00
2103, 1452.00
2104, 1453.00
2105, 1452.00
2106, 1454.00
2107, 1455.00
2108, 1453.00
2109, 1453.00
2110, 1456.00
2111, 1455.00
2112, 1453.00
2113, 1453.00
2114, 1455.00
2115, 1454.00
2116, 1457.00
2117, 1455.00
2118, 1456.00
2119, 1455.00
2120, 1455.00
2121, 1457.00
2122, 1459.00
2123, 1456.00
2124, 1458.00
2125, 1456.00
2126, 1457.00
2127, 1458.00
2128, 1459.00
2129, 1458.00
2130, 1457.00
2131, 1459.00
2132, 1458.00
2133, 1459.00
2134, 1457.00
2135, 1460.00
2136, 1459.00
2137, 1460.00
2138, 1459.00
2139, 1461.00
2140, 1461.00
2141, 1459.00
2142, 1459.00
2143, 1462.00
2144, 1458.00
2145, 1461.00
2146, 1461.00
2147, 1461.00
2148, 1460.00
2149, 1459.00
2150, 1460.00
