FW version: 24
Log Version: 3.0.3

General Info:
       Command/Macro Performed,            Timestamp,             Device ID, COM Port, UART/I2C, Test Name, Host Major, Host Minor, Host Revision, Host Git Commit
            Single_measurement,  2023_07_11_10_34_56,       Insight2_F4_xxx,    USB-C,      USB,          ,          0,          1,             1,      4031237645

Show Spectrometer Status:
l0_version, f4_version, battery_perc, battery_mVolt, accelerometer_temp, accelerometer_x, accelerometer_y, accelerometer_z, compass_temp, compass_x, compass_y, compass_z, lamp_0, lamp_1, gain_0, gain_1
        17,         24,           49,          1908,               5584,           65228,             748,           18704,            0,     65500,     65517,     18775,   2047,   2047,      1,      1

Temperature Statistic Info:
NTC AVG [°C], NTC2 AVG [°C]
      35.414,        35.071

Statistic Info:
M1:  num,      min,      max,   median,      AVG,      STD,M2:  num,      min,      max,   median,      AVG,      STD
     301,   887.00,  1036.00,   919.00,   936.94,  47.4176,     401,  1298.00,  1392.00,  1339.00,  1340.64,  30.8766,

Measurements:
Wavelength, Data Amplitude
1350, 911.00
1351, 910.00
1352, 911.00
1353, 909.00
1354, 909.00
1355, 908.00
1356, 908.00
1357, 907.00
1358, 907.00
1359, 907.00
1360, 907.00
1361, 905.00
1362, 905.00
1363, 905.00
1364, 903.00
1365, 903.00
1366, 902.00
1367, 902.00
1368, 901.00
1369, 900.00
1370, 900.00
1371, 899.00
1372, 899.00
1373, 898.00
1374, 898.00
1375, 896.00
1376, 897.00
1377, 895.00
1378, 895.00
1379, 895.00
1380, 894.00
1381, 893.00
1382, 893.00
1383, 893.00
1384, 891.00
1385, 892.00
1386, 893.00
1387, 892.00
1388, 891.00
1389, 891.00
1390, 891.00
1391, 891.00
1392, 891.00
1393, 890.00
1394, 890.00
1395, 889.00
1396, 889.00
1397, 888.00
1398, 889.00
1399, 888.00
1400, 887.00
1401, 889.00
1402, 889.00
1403, 888.00
1404, 888.00
1405, 888.00
1406, 887.00
1407, 887.00
1408, 887.00
1409, 888.00
1410, 887.00
1411, 887.00
1412, 888.00
1413, 887.00
1414, 888.00
1415, 887.00
1416, 887.00
1417, 887.00
1418, 887.00
1419, 887.00
1420, 887.00
1421, 887.00
1422, 887.00
1423, 888.00
1424, 888.00
1425, 887.00
1426, 887.00
1427, 888.00
1428, 889.00
1429, 889.00
1430, 888.00
1431, 889.00
1432, 889.00
1433, 889.00
1434, 889.00
1435, 889.00
1436, 889.00
1437, 890.00
1438, 890.00
1439, 891.00
1440, 890.00
1441, 890.00
1442, 891.00
1443, 891.00
1444, 891.00
1445, 892.00
1446, 891.00
1447, 892.00
1448, 893.00
1449, 892.00
1450, 893.00
1451, 893.00
1452, 893.00
1453, 894.00
1454, 895.00
1455, 895.00
1456, 895.00
1457, 895.00
1458, 895.00
1459, 895.00
1460, 897.00
1461, 896.00
1462, 898.00
1463, 896.00
1464, 897.00
1465, 898.00
1466, 899.00
1467, 898.00
1468, 900.00
1469, 900.00
1470, 901.00
1471, 901.00
1472, 902.00
1473, 902.00
1474, 903.00
1475, 904.00
1476, 904.00
1477, 905.00
1478, 905.00
1479, 906.00
1480, 905.00
1481, 906.00
1482, 908.00
1483, 908.00
1484, 908.00
1485, 909.00
1486, 909.00
1487, 910.00
1488, 911.00
1489, 912.00
1490, 912.00
1491, 912.00
1492, 915.00
1493, 915.00
1494, 915.00
1495, 916.00
1496, 916.00
1497, 917.00
1498, 918.00
1499, 919.00
1500, 919.00
1501, 919.00
1502, 921.00
1503, 921.00
1504, 922.00
1505, 923.00
1506, 922.00
1507, 924.00
1508, 924.00
1509, 925.00
1510, 926.00
1511, 926.00
1512, 927.00
1513, 927.00
1514, 929.00
1515, 929.00
1516, 931.00
1517, 931.00
1518, 932.00
1519, 933.00
1520, 933.00
1521, 933.00
1522, 934.00
1523, 935.00
1524, 936.00
1525, 936.00
1526, 938.00
1527, 938.00
1528, 940.00
1529, 940.00
1530, 942.00
1531, 941.00
1532, 942.00
1533, 943.00
1534, 944.00
1535, 945.00
1536, 946.00
1537, 947.00
1538, 947.00
1539, 948.00
1540, 947.00
1541, 949.00
1542, 950.00
1543, 951.00
1544, 951.00
1545, 951.00
1546, 954.00
1547, 954.00
1548, 954.00
1549, 955.00
1550, 956.00
1551, 957.00
1552, 957.00
1553, 958.00
1554, 959.00
1555, 959.00
1556, 960.00
1557, 961.00
1558, 962.00
1559, 963.00
1560, 964.00
1561, 965.00
1562, 965.00
1563, 966.00
1564, 968.00
1565, 968.00
1566, 969.00
1567, 970.00
1568, 970.00
1569, 971.00
1570, 973.00
1571, 972.00
1572, 973.00
1573, 974.00
1574, 975.00
1575, 976.00
1576, 977.00
1577, 978.00
1578, 979.00
1579, 978.00
1580, 980.00
1581, 981.00
1582, 982.00
1583, 982.00
1584, 983.00
1585, 983.00
1586, 984.00
1587, 985.00
1588, 986.00
1589, 986.00
1590, 987.00
1591, 989.00
1592, 989.00
1593, 990.00
1594, 990.00
1595, 991.00
1596, 991.00
1597, 993.00
1598, 994.00
1599, 995.00
1600, 995.00
1601, 997.00
1602, 997.00
1603, 998.00
1604, 998.00
1605, 999.00
1606, 999.00
1607, 1002.00
1608, 1002.00
1609, 1003.00
1610, 1004.00
1611, 1004.00
1612, 1006.00
1613, 1007.00
1614, 1007.00
1615, 1009.00
1616, 1010.00
1617, 1011.00
1618, 1011.00
1619, 1013.00
1620, 1014.00
1621, 1015.00
1622, 1015.00
1623, 1016.00
1624, 1017.00
1625, 1018.00
1626, 1018.00
1627, 1020.00
1628, 1020.00
1629, 1022.00
1630, 1024.00
1631, 1024.00
1632, 1024.00
1633, 1026.00
1634, 1027.00
1635, 1026.00
1636, 1028.00
1637, 1028.00
1638, 1028.00
1639, 1030.00
1640, 1031.00
1641, 1031.00
1642, 1032.00
1643, 1032.00
1644, 1032.00
1645, 1033.00
1646, 1034.00
1647, 1035.00
1648, 1035.00
1649, 1036.00
1650, 1036.00

1750, 1390.00
1751, 1392.00
1752, 1391.00
1753, 1391.00
1754, 1391.00
1755, 1391.00
1756, 1392.00
1757, 1391.00
1758, 1390.00
1759, 1392.00
1760, 1391.00
1761, 1391.00
1762, 1390.00
1763, 1391.00
1764, 1392.00
1765, 1390.00
1766, 1390.00
1767, 1388.00
1768, 1390.00
1769, 1391.00
1770, 1389.00
1771, 1390.00
1772, 1390.00
1773, 1389.00
1774, 1391.00
1775, 1390.00
1776, 1389.00
1777, 1389.00
1778, 1387.00
1779, 1388.00
1780, 1387.00
1781, 1388.00
1782, 1387.00
1783, 1387.00
1784, 1388.00
1785, 1386.00
1786, 1386.00
1787, 1384.00
1788, 1387.00
1789, 1384.00
1790, 1385.00
1791, 1384.00
1792, 1385.00
1793, 1386.00
1794, 1384.00
1795, 1383.00
1796, 1384.00
1797, 1383.00
1798, 1383.00
1799, 1382.00
1800, 1382.00
1801, 1382.00
1802, 1381.00
1803, 1382.00
1804, 1380.00
1805, 1381.00
1806, 1381.00
1807, 1379.00
1808, 1381.00
1809, 1380.00
1810, 1380.00
1811, 1378.00
1812, 1379.00
1813, 1378.00
1814, 1378.00
1815, 1377.00
1816, 1377.00
1817, 1376.00
1818, 1376.00
1819, 1376.00
1820, 1375.00
1821, 1375.00
1822, 1372.00
1823, 1373.00
1824, 1374.00
1825, 1371.00
1826, 1371.00
1827, 1370.00
1828, 1370.00
1829, 1369.00
1830, 1369.00
1831, 1368.00
1832, 1364.00
1833, 1365.00
1834, 1365.00
1835, 1364.00
1836, 1361.00
1837, 1361.00
1838, 1359.00
1839, 1359.00
1840, 1359.00
1841, 1357.00
1842, 1356.00
1843, 1353.00
1844, 1351.00
1845, 1349.00
1846, 1349.00
1847, 1349.00
1848, 1346.00
1849, 1345.00
1850, 1343.00
1851, 1343.00
1852, 1341.00
1853, 1340.00
1854, 1338.00
1855, 1337.00
1856, 1334.00
1857, 1333.00
1858, 1330.00
1859, 1329.00
1860, 1329.00
1861, 1327.00
1862, 1327.00
1863, 1325.00
1864, 1325.00
1865, 1324.00
1866, 1321.00
1867, 1320.00
1868, 1320.00
1869, 1318.00
1870, 1317.00
1871, 1317.00
1872, 1315.00
1873, 1315.00
1874, 1315.00
1875, 1312.00
1876, 1312.00
1877, 1312.00
1878, 1313.00
1879, 1311.00
1880, 1311.00
1881, 1310.00
1882, 1308.00
1883, 1309.00
1884, 1309.00
1885, 1308.00
1886, 1307.00
1887, 1306.00
1888, 1307.00
1889, 1307.00
1890, 1308.00
1891, 1304.00
1892, 1306.00
1893, 1305.00
1894, 1306.00
1895, 1305.00
1896, 1305.00
1897, 1304.00
1898, 1305.00
1899, 1303.00
1900, 1303.00
1901, 1303.00
1902, 1303.00
1903, 1301.00
1904, 1303.00
1905, 1301.00
1906, 1302.00
1907, 1301.00
1908, 1302.00
1909, 1301.00
1910, 1301.00
1911, 1302.00
1912, 1301.00
1913, 1302.00
1914, 1301.00
1915, 1300.00
1916, 1300.00
1917, 1299.00
1918, 1299.00
1919, 1301.00
1920, 1301.00
1921, 1299.00
1922, 1300.00
1923, 1300.00
1924, 1301.00
1925, 1301.00
1926, 1299.00
1927, 1302.00
1928, 1300.00
1929, 1302.00
1930, 1299.00
1931, 1299.00
1932, 1300.00
1933, 1299.00
1934, 1301.00
1935, 1301.00
1936, 1298.00
1937, 1300.00
1938, 1303.00
1939, 1300.00
1940, 1300.00
1941, 1302.00
1942, 1300.00
1943, 1301.00
1944, 1300.00
1945, 1301.00
1946, 1299.00
1947, 1301.00
1948, 1302.00
1949, 1303.00
1950, 1301.00
1951, 1303.00
1952, 1304.00
1953, 1302.00
1954, 1302.00
1955, 1303.00
1956, 1304.00
1957, 1304.00
1958, 1303.00
1959, 1303.00
1960, 1304.00
1961, 1305.00
1962, 1305.00
1963, 1304.00
1964, 1305.00
1965, 1304.00
1966, 1305.00
1967, 1307.00
1968, 1306.00
1969, 1306.00
1970, 1307.00
1971, 1307.00
1972, 1307.00
1973, 1309.00
1974, 1307.00
1975, 1307.00
1976, 1307.00
1977, 1310.00
1978, 1310.00
1979, 1310.00
1980, 1309.00
1981, 1311.00
1982, 1310.00
1983, 1312.00
1984, 1310.00
1985, 1312.00
1986, 1311.00
1987, 1313.00
1988, 1312.00
1989, 1314.00
1990, 1314.00
1991, 1314.00
1992, 1312.00
1993, 1313.00
1994, 1316.00
1995, 1314.00
1996, 1315.00
1997, 1316.00
1998, 1315.00
1999, 1316.00
2000, 1316.00
2001, 1317.00
2002, 1317.00
2003, 1316.00
2004, 1317.00
2005, 1319.00
2006, 1317.00
2007, 1320.00
2008, 1318.00
2009, 1321.00
2010, 1321.00
2011, 1321.00
2012, 1320.00
2013, 1321.00
2014, 1322.00
2015, 1321.00
2016, 1322.00
2017, 1322.00
2018, 1323.00
2019, 1323.00
2020, 1323.00
2021, 1323.00
2022, 1323.00
2023, 1324.00
2024, 1323.00
2025, 1326.00
2026, 1326.00
2027, 1326.00
2028, 1326.00
2029, 1327.00
2030, 1328.00
2031, 1326.00
2032, 1327.00
2033, 1327.00
2034, 1329.00
2035, 1328.00
2036, 1331.00
2037, 1327.00
2038, 1330.00
2039, 1331.00
2040, 1330.00
2041, 1330.00
2042, 1331.00
2043, 1332.00
2044, 1332.00
2045, 1334.00
2046, 1333.00
2047, 1335.00
2048, 1336.00
2049, 1335.00
2050, 1336.00
2051, 1335.00
2052, 1337.00
2053, 1336.00
2054, 1339.00
2055, 1339.00
2056, 1339.00
2057, 1339.00
2058, 1341.00
2059, 1342.00
2060, 1341.00
2061, 1343.00
2062, 1342.00
2063, 1342.00
2064, 1343.00
2065, 1344.00
2066, 1346.00
2067, 1344.00
2068, 1346.00
2069, 1346.00
2070, 1346.00
2071, 1348.00
2072, 1348.00
2073, 1350.00
2074, 1348.00
2075, 1350.00
2076, 1350.00
2077, 1351.00
2078, 1351.00
2079, 1350.00
2080, 1352.00
2081, 1353.00
2082, 1353.00
2083, 1355.00
2084, 1354.00
2085, 1354.00
2086, 1353.00
2087, 1355.00
2088, 1356.00
2089, 1357.00
2090, 1356.00
2091, 1358.00
2092, 1357.00
2093, 1356.00
2094, 1358.00
2095, 1358.00
2096, 1358.00
2097, 1359.00
2098, 1361.00
2099, 1360.00
2100, 1361.00
2101, 1361.00
2102, 1361.00
2103, 1360.00
2104, 1361.00
2105, 1362.00
2106, 1362.00
2107, 1363.00
2108, 1364.00
2109, 1362.00
2110, 1363.00
2111, 1363.00
2112, 1365.00
2113, 1365.00
2114, 1363.00
2115, 1366.00
2116, 1364.00
2117, 1366.00
2118, 1366.00
2119, 1367.00
2120, 1364.00
2121, 1366.00
2122, 1367.00
2123, 1368.00
2124, 1367.00
2125, 1367.00
2126, 1368.00
2127, 1367.00
2128, 1368.00
2129, 1369.00
2130, 1369.00
2131, 1369.00
2132, 1370.00
2133, 1369.00
2134, 1369.00
2135, 1369.00
2136, 1369.00
2137, 1369.00
2138, 1369.00
2139, 1370.00
2140, 1370.00
2141, 1370.00
2142, 1371.00
2143, 1371.00
2144, 1372.00
2145, 1370.00
2146, 1372.00
2147, 1372.00
2148, 1372.00
2149, 1371.00
2150, 1372.00
