FW version: 24
Log Version: 3.0.3

General Info:
       Command/Macro Performed,            Timestamp,             Device ID, COM Port, UART/I2C, Test Name, Host Major, Host Minor, Host Revision, Host Git Commit
            Single_measurement,  2023_07_11_10_34_51,       Insight2_F4_xxx,    USB-C,      USB,          ,          0,          1,             1,      4031237645

Show Spectrometer Status:
l0_version, f4_version, battery_perc, battery_mVolt, accelerometer_temp, accelerometer_x, accelerometer_y, accelerometer_z, compass_temp, compass_x, compass_y, compass_z, lamp_0, lamp_1, gain_0, gain_1
        17,         24,           49,          1907,               5568,           65216,             812,           18788,            0,     65493,     65390,     18814,   2047,   2047,      1,      1

Temperature Statistic Info:
NTC AVG [°C], NTC2 AVG [°C]
      35.385,        35.042

Statistic Info:
M1:  num,      min,      max,   median,      AVG,      STD,M2:  num,      min,      max,   median,      AVG,      STD
     301,   887.00,  1037.00,   919.00,   937.12,  47.3239,     401,  1298.00,  1392.00,  1338.00,  1340.91,  30.8482,

Measurements:
Wavelength, Data Amplitude
1350, 911.00
1351, 911.00
1352, 910.00
1353, 910.00
1354, 908.00
1355, 909.00
1356, 909.00
1357, 908.00
1358, 908.00
1359, 907.00
1360, 906.00
1361, 906.00
1362, 905.00
1363, 905.00
1364, 904.00
1365, 903.00
1366, 903.00
1367, 902.00
1368, 902.00
1369, 900.00
1370, 900.00
1371, 899.00
1372, 899.00
1373, 897.00
1374, 898.00
1375, 897.00
1376, 896.00
1377, 895.00
1378, 895.00
1379, 895.00
1380, 895.00
1381, 894.00
1382, 895.00
1383, 894.00
1384, 893.00
1385, 893.00
1386, 892.00
1387, 892.00
1388, 892.00
1389, 891.00
1390, 891.00
1391, 892.00
1392, 890.00
1393, 890.00
1394, 890.00
1395, 889.00
1396, 890.00
1397, 889.00
1398, 890.00
1399, 888.00
1400, 889.00
1401, 889.00
1402, 888.00
1403, 888.00
1404, 889.00
1405, 888.00
1406, 888.00
1407, 888.00
1408, 888.00
1409, 888.00
1410, 888.00
1411, 888.00
1412, 888.00
1413, 887.00
1414, 887.00
1415, 887.00
1416, 888.00
1417, 889.00
1418, 887.00
1419, 888.00
1420, 888.00
1421, 888.00
1422, 887.00
1423, 889.00
1424, 888.00
1425, 887.00
1426, 888.00
1427, 887.00
1428, 888.00
1429, 890.00
1430, 888.00
1431, 888.00
1432, 889.00
1433, 890.00
1434, 888.00
1435, 889.00
1436, 889.00
1437, 890.00
1438, 891.00
1439, 890.00
1440, 890.00
1441, 890.00
1442, 891.00
1443, 891.00
1444, 891.00
1445, 892.00
1446, 892.00
1447, 891.00
1448, 892.00
1449, 893.00
1450, 892.00
1451, 893.00
1452, 894.00
1453, 894.00
1454, 894.00
1455, 895.00
1456, 895.00
1457, 895.00
1458, 895.00
1459, 896.00
1460, 898.00
1461, 897.00
1462, 898.00
1463, 897.00
1464, 898.00
1465, 899.00
1466, 898.00
1467, 900.00
1468, 900.00
1469, 900.00
1470, 901.00
1471, 901.00
1472, 902.00
1473, 903.00
1474, 902.00
1475, 904.00
1476, 904.00
1477, 905.00
1478, 905.00
1479, 906.00
1480, 907.00
1481, 907.00
1482, 907.00
1483, 909.00
1484, 909.00
1485, 910.00
1486, 910.00
1487, 911.00
1488, 912.00
1489, 911.00
1490, 913.00
1491, 914.00
1492, 913.00
1493, 914.00
1494, 915.00
1495, 916.00
1496, 917.00
1497, 918.00
1498, 918.00
1499, 918.00
1500, 919.00
1501, 920.00
1502, 920.00
1503, 921.00
1504, 921.00
1505, 922.00
1506, 922.00
1507, 924.00
1508, 925.00
1509, 925.00
1510, 925.00
1511, 927.00
1512, 927.00
1513, 928.00
1514, 929.00
1515, 929.00
1516, 930.00
1517, 931.00
1518, 932.00
1519, 933.00
1520, 933.00
1521, 934.00
1522, 936.00
1523, 935.00
1524, 936.00
1525, 937.00
1526, 937.00
1527, 938.00
1528, 939.00
1529, 940.00
1530, 940.00
1531, 942.00
1532, 943.00
1533, 943.00
1534, 943.00
1535, 944.00
1536, 945.00
1537, 947.00
1538, 947.00
1539, 948.00
1540, 949.00
1541, 949.00
1542, 951.00
1543, 951.00
1544, 952.00
1545, 953.00
1546, 954.00
1547, 954.00
1548, 955.00
1549, 955.00
1550, 955.00
1551, 957.00
1552, 958.00
1553, 958.00
1554, 959.00
1555, 959.00
1556, 961.00
1557, 961.00
1558, 962.00
1559, 962.00
1560, 964.00
1561, 965.00
1562, 965.00
1563, 966.00
1564, 968.00
1565, 968.00
1566, 969.00
1567, 969.00
1568, 970.00
1569, 970.00
1570, 974.00
1571, 973.00
1572, 973.00
1573, 974.00
1574, 975.00
1575, 977.00
1576, 977.00
1577, 978.00
1578, 979.00
1579, 979.00
1580, 980.00
1581, 981.00
1582, 982.00
1583, 982.00
1584, 983.00
1585, 984.00
1586, 984.00
1587, 985.00
1588, 986.00
1589, 987.00
1590, 987.00
1591, 988.00
1592, 989.00
1593, 990.00
1594, 990.00
1595, 991.00
1596, 993.00
1597, 993.00
1598, 994.00
1599, 994.00
1600, 995.00
1601, 996.00
1602, 997.00
1603, 998.00
1604, 999.00
1605, 1000.00
1606, 1000.00
1607, 1002.00
1608, 1003.00
1609, 1003.00
1610, 1004.00
1611, 1005.00
1612, 1006.00
1613, 1007.00
1614, 1007.00
1615, 1008.00
1616, 1009.00
1617, 1010.00
1618, 1011.00
1619, 1012.00
1620, 1014.00
1621, 1015.00
1622, 1016.00
1623, 1016.00
1624, 1017.00
1625, 1018.00
1626, 1020.00
1627, 1020.00
1628, 1021.00
1629, 1021.00
1630, 1023.00
1631, 1024.00
1632, 1024.00
1633, 1026.00
1634, 1026.00
1635, 1027.00
1636, 1028.00
1637, 1028.00
1638, 1029.00
1639, 1029.00
1640, 1030.00
1641, 1031.00
1642, 1031.00
1643, 1032.00
1644, 1033.00
1645, 1033.00
1646, 1034.00
1647, 1034.00
1648, 1035.00
1649, 1037.00
1650, 1037.00

1750, 1391.00
1751, 1390.00
1752, 1391.00
1753, 1390.00
1754, 1390.00
1755, 1392.00
1756, 1390.00
1757, 1390.00
1758, 1392.00
1759, 1391.00
1760, 1391.00
1761, 1392.00
1762, 1390.00
1763, 1392.00
1764, 1391.00
1765, 1390.00
1766, 1391.00
1767, 1391.00
1768, 1392.00
1769, 1391.00
1770, 1391.00
1771, 1390.00
1772, 1390.00
1773, 1390.00
1774, 1388.00
1775, 1389.00
1776, 1389.00
1777, 1388.00
1778, 1389.00
1779, 1389.00
1780, 1388.00
1781, 1388.00
1782, 1387.00
1783, 1387.00
1784, 1388.00
1785, 1386.00
1786, 1387.00
1787, 1387.00
1788, 1387.00
1789, 1385.00
1790, 1384.00
1791, 1385.00
1792, 1384.00
1793, 1384.00
1794, 1382.00
1795, 1385.00
1796, 1383.00
1797, 1384.00
1798, 1383.00
1799, 1382.00
1800, 1381.00
1801, 1382.00
1802, 1383.00
1803, 1381.00
1804, 1382.00
1805, 1381.00
1806, 1380.00
1807, 1381.00
1808, 1382.00
1809, 1380.00
1810, 1379.00
1811, 1381.00
1812, 1376.00
1813, 1379.00
1814, 1377.00
1815, 1379.00
1816, 1379.00
1817, 1378.00
1818, 1378.00
1819, 1376.00
1820, 1376.00
1821, 1376.00
1822, 1375.00
1823, 1375.00
1824, 1373.00
1825, 1372.00
1826, 1374.00
1827, 1371.00
1828, 1370.00
1829, 1369.00
1830, 1369.00
1831, 1367.00
1832, 1367.00
1833, 1366.00
1834, 1362.00
1835, 1365.00
1836, 1361.00
1837, 1360.00
1838, 1360.00
1839, 1358.00
1840, 1358.00
1841, 1356.00
1842, 1355.00
1843, 1355.00
1844, 1351.00
1845, 1351.00
1846, 1350.00
1847, 1348.00
1848, 1345.00
1849, 1345.00
1850, 1344.00
1851, 1341.00
1852, 1341.00
1853, 1339.00
1854, 1338.00
1855, 1335.00
1856, 1334.00
1857, 1335.00
1858, 1331.00
1859, 1331.00
1860, 1328.00
1861, 1329.00
1862, 1326.00
1863, 1327.00
1864, 1323.00
1865, 1323.00
1866, 1322.00
1867, 1320.00
1868, 1319.00
1869, 1318.00
1870, 1318.00
1871, 1318.00
1872, 1318.00
1873, 1316.00
1874, 1315.00
1875, 1316.00
1876, 1314.00
1877, 1312.00
1878, 1313.00
1879, 1312.00
1880, 1312.00
1881, 1310.00
1882, 1310.00
1883, 1308.00
1884, 1308.00
1885, 1308.00
1886, 1307.00
1887, 1307.00
1888, 1306.00
1889, 1307.00
1890, 1307.00
1891, 1307.00
1892, 1306.00
1893, 1305.00
1894, 1305.00
1895, 1306.00
1896, 1305.00
1897, 1305.00
1898, 1304.00
1899, 1304.00
1900, 1304.00
1901, 1304.00
1902, 1303.00
1903, 1303.00
1904, 1301.00
1905, 1303.00
1906, 1302.00
1907, 1303.00
1908, 1301.00
1909, 1302.00
1910, 1301.00
1911, 1302.00
1912, 1302.00
1913, 1302.00
1914, 1301.00
1915, 1302.00
1916, 1301.00
1917, 1300.00
1918, 1301.00
1919, 1300.00
1920, 1300.00
1921, 1301.00
1922, 1303.00
1923, 1301.00
1924, 1300.00
1925, 1298.00
1926, 1301.00
1927, 1299.00
1928, 1299.00
1929, 1300.00
1930, 1301.00
1931, 1300.00
1932, 1302.00
1933, 1301.00
1934, 1300.00
1935, 1302.00
1936, 1299.00
1937, 1301.00
1938, 1301.00
1939, 1301.00
1940, 1301.00
1941, 1300.00
1942, 1302.00
1943, 1301.00
1944, 1301.00
1945, 1299.00
1946, 1301.00
1947, 1301.00
1948, 1301.00
1949, 1302.00
1950, 1303.00
1951, 1302.00
1952, 1303.00
1953, 1303.00
1954, 1302.00
1955, 1304.00
1956, 1305.00
1957, 1304.00
1958, 1303.00
1959, 1305.00
1960, 1304.00
1961, 1304.00
1962, 1303.00
1963, 1306.00
1964, 1305.00
1965, 1306.00
1966, 1306.00
1967, 1305.00
1968, 1306.00
1969, 1307.00
1970, 1306.00
1971, 1307.00
1972, 1308.00
1973, 1308.00
1974, 1308.00
1975, 1309.00
1976, 1308.00
1977, 1307.00
1978, 1309.00
1979, 1309.00
1980, 1310.00
1981, 1311.00
1982, 1309.00
1983, 1311.00
1984, 1313.00
1985, 1311.00
1986, 1312.00
1987, 1312.00
1988, 1312.00
1989, 1313.00
1990, 1313.00
1991, 1313.00
1992, 1315.00
1993, 1317.00
1994, 1314.00
1995, 1316.00
1996, 1316.00
1997, 1315.00
1998, 1316.00
1999, 1317.00
2000, 1315.00
2001, 1318.00
2002, 1317.00
2003, 1316.00
2004, 1317.00
2005, 1318.00
2006, 1318.00
2007, 1319.00
2008, 1320.00
2009, 1319.00
2010, 1319.00
2011, 1321.00
2012, 1321.00
2013, 1321.00
2014, 1322.00
2015, 1322.00
2016, 1321.00
2017, 1321.00
2018, 1324.00
2019, 1324.00
2020, 1324.00
2021, 1324.00
2022, 1325.00
2023, 1324.00
2024, 1323.00
2025, 1325.00
2026, 1325.00
2027, 1326.00
2028, 1327.00
2029, 1326.00
2030, 1327.00
2031, 1329.00
2032, 1328.00
2033, 1327.00
2034, 1328.00
2035, 1329.00
2036, 1329.00
2037, 1329.00
2038, 1332.00
2039, 1331.00
2040, 1332.00
2041, 1332.00
2042, 1331.00
2043, 1332.00
2044, 1334.00
2045, 1333.00
2046, 1335.00
2047, 1335.00
2048, 1336.00
2049, 1336.00
2050, 1338.00
2051, 1336.00
2052, 1337.00
2053, 1338.00
2054, 1338.00
2055, 1338.00
2056, 1339.00
2057, 1340.00
2058, 1342.00
2059, 1342.00
2060, 1341.00
2061, 1341.00
2062, 1344.00
2063, 1342.00
2064, 1344.00
2065, 1344.00
2066, 1345.00
2067, 1347.00
2068, 1347.00
2069, 1346.00
2070, 1346.00
2071, 1349.00
2072, 1348.00
2073, 1349.00
2074, 1348.00
2075, 1349.00
2076, 1350.00
2077, 1352.00
2078, 1353.00
2079, 1352.00
2080, 1352.00
2081, 1352.00
2082, 1352.00
2083, 1354.00
2084, 1355.00
2085, 1355.00
2086, 1355.00
2087, 1356.00
2088, 1355.00
2089, 1355.00
2090, 1357.00
2091, 1357.00
2092, 1358.00
2093, 1359.00
2094, 1358.00
2095, 1359.00
2096, 1359.00
2097, 1360.00
2098, 1359.00
2099, 1360.00
2100, 1360.00
2101, 1359.00
2102, 1360.00
2103, 1361.00
2104, 1361.00
2105, 1362.00
2106, 1363.00
2107, 1362.00
2108, 1363.00
2109, 1365.00
2110, 1363.00
2111, 1365.00
2112, 1363.00
2113, 1365.00
2114, 1364.00
2115, 1363.00
2116, 1365.00
2117, 1366.00
2118, 1365.00
2119, 1365.00
2120, 1366.00
2121, 1367.00
2122, 1367.00
2123, 1365.00
2124, 1367.00
2125, 1367.00
2126, 1367.00
2127, 1369.00
2128, 1368.00
2129, 1368.00
2130, 1368.00
2131, 1370.00
2132, 1370.00
2133, 1369.00
2134, 1371.00
2135, 1368.00
2136, 1371.00
2137, 1369.00
2138, 1370.00
2139, 1371.00
2140, 1370.00
2141, 1370.00
2142, 1371.00
2143, 1372.00
2144, 1372.00
2145, 1371.00
2146, 1373.00
2147, 1371.00
2148, 1370.00
2149, 1372.00
2150, 1372.00
