FW version: 24
Log Version: 3.0.3

General Info:
       Command/Macro Performed,            Timestamp,             Device ID, COM Port, UART/I2C, Test Name, Host Major, Host Minor, Host Revision, Host Git Commit
            Single_measurement,  2023_06_29_10_58_21,       Insight2_F4_xxx,    USB-C,      USB,          ,          0,          1,             1,      4031237645

Show Spectrometer Status:
l0_version, f4_version, battery_perc, battery_mVolt, accelerometer_temp, accelerometer_x, accelerometer_y, accelerometer_z, compass_temp, compass_x, compass_y, compass_z, lamp_0, lamp_1, gain_0, gain_1
        17,         24,           94,          2071,               5952,           65440,             236,           18472,            0,     65530,     65535,     65515,   2047,   2047,      1,      1

Temperature Statistic Info:
NTC AVG [°C], NTC2 AVG [°C]
      37.925,        37.640

Statistic Info:
M1:  num,      min,      max,   median,      AVG,      STD,M2:  num,      min,      max,   median,      AVG,      STD
     301,   874.00,  1029.00,   906.00,   925.80,  48.6952,     401,  1282.00,  1381.00,  1324.00,  1326.27,  32.4753,

Measurements:
Wavelength, Data Amplitude
1350, 900.00
1351, 900.00
1352, 898.00
1353, 898.00
1354, 897.00
1355, 896.00
1356, 897.00
1357, 896.00
1358, 895.00
1359, 895.00
1360, 894.00
1361, 894.00
1362, 894.00
1363, 892.00
1364, 891.00
1365, 891.00
1366, 890.00
1367, 890.00
1368, 888.00
1369, 888.00
1370, 889.00
1371, 887.00
1372, 886.00
1373, 885.00
1374, 886.00
1375, 885.00
1376, 884.00
1377, 884.00
1378, 883.00
1379, 882.00
1380, 881.00
1381, 882.00
1382, 881.00
1383, 881.00
1384, 879.00
1385, 880.00
1386, 879.00
1387, 879.00
1388, 878.00
1389, 878.00
1390, 878.00
1391, 878.00
1392, 877.00
1393, 878.00
1394, 877.00
1395, 877.00
1396, 877.00
1397, 877.00
1398, 877.00
1399, 876.00
1400, 876.00
1401, 875.00
1402, 875.00
1403, 876.00
1404, 875.00
1405, 876.00
1406, 876.00
1407, 875.00
1408, 876.00
1409, 874.00
1410, 875.00
1411, 875.00
1412, 876.00
1413, 875.00
1414, 875.00
1415, 874.00
1416, 875.00
1417, 875.00
1418, 875.00
1419, 875.00
1420, 875.00
1421, 874.00
1422, 875.00
1423, 874.00
1424, 875.00
1425, 875.00
1426, 876.00
1427, 875.00
1428, 875.00
1429, 876.00
1430, 876.00
1431, 876.00
1432, 876.00
1433, 877.00
1434, 877.00
1435, 877.00
1436, 877.00
1437, 877.00
1438, 877.00
1439, 877.00
1440, 877.00
1441, 878.00
1442, 879.00
1443, 879.00
1444, 879.00
1445, 879.00
1446, 879.00
1447, 880.00
1448, 881.00
1449, 879.00
1450, 880.00
1451, 880.00
1452, 881.00
1453, 882.00
1454, 882.00
1455, 883.00
1456, 883.00
1457, 883.00
1458, 883.00
1459, 884.00
1460, 884.00
1461, 884.00
1462, 885.00
1463, 886.00
1464, 886.00
1465, 886.00
1466, 887.00
1467, 887.00
1468, 887.00
1469, 888.00
1470, 888.00
1471, 890.00
1472, 890.00
1473, 890.00
1474, 891.00
1475, 891.00
1476, 892.00
1477, 893.00
1478, 894.00
1479, 895.00
1480, 895.00
1481, 895.00
1482, 895.00
1483, 897.00
1484, 896.00
1485, 898.00
1486, 898.00
1487, 898.00
1488, 900.00
1489, 900.00
1490, 900.00
1491, 902.00
1492, 903.00
1493, 903.00
1494, 904.00
1495, 904.00
1496, 904.00
1497, 906.00
1498, 906.00
1499, 906.00
1500, 906.00
1501, 908.00
1502, 909.00
1503, 909.00
1504, 910.00
1505, 911.00
1506, 911.00
1507, 912.00
1508, 912.00
1509, 913.00
1510, 914.00
1511, 915.00
1512, 916.00
1513, 916.00
1514, 917.00
1515, 918.00
1516, 918.00
1517, 919.00
1518, 920.00
1519, 920.00
1520, 922.00
1521, 923.00
1522, 923.00
1523, 925.00
1524, 925.00
1525, 925.00
1526, 926.00
1527, 927.00
1528, 929.00
1529, 928.00
1530, 930.00
1531, 930.00
1532, 931.00
1533, 932.00
1534, 933.00
1535, 933.00
1536, 934.00
1537, 935.00
1538, 935.00
1539, 937.00
1540, 937.00
1541, 938.00
1542, 939.00
1543, 940.00
1544, 940.00
1545, 941.00
1546, 941.00
1547, 943.00
1548, 943.00
1549, 944.00
1550, 945.00
1551, 946.00
1552, 946.00
1553, 947.00
1554, 949.00
1555, 949.00
1556, 949.00
1557, 950.00
1558, 952.00
1559, 952.00
1560, 953.00
1561, 953.00
1562, 955.00
1563, 956.00
1564, 957.00
1565, 957.00
1566, 958.00
1567, 959.00
1568, 961.00
1569, 961.00
1570, 962.00
1571, 962.00
1572, 963.00
1573, 964.00
1574, 965.00
1575, 966.00
1576, 967.00
1577, 967.00
1578, 968.00
1579, 970.00
1580, 970.00
1581, 972.00
1582, 972.00
1583, 973.00
1584, 972.00
1585, 974.00
1586, 975.00
1587, 975.00
1588, 976.00
1589, 977.00
1590, 978.00
1591, 979.00
1592, 979.00
1593, 979.00
1594, 981.00
1595, 982.00
1596, 983.00
1597, 983.00
1598, 984.00
1599, 985.00
1600, 986.00
1601, 987.00
1602, 987.00
1603, 988.00
1604, 990.00
1605, 989.00
1606, 991.00
1607, 991.00
1608, 993.00
1609, 994.00
1610, 994.00
1611, 996.00
1612, 997.00
1613, 998.00
1614, 998.00
1615, 999.00
1616, 1000.00
1617, 1002.00
1618, 1003.00
1619, 1004.00
1620, 1004.00
1621, 1005.00
1622, 1005.00
1623, 1007.00
1624, 1008.00
1625, 1009.00
1626, 1010.00
1627, 1011.00
1628, 1012.00
1629, 1013.00
1630, 1014.00
1631, 1015.00
1632, 1015.00
1633, 1016.00
1634, 1019.00
1635, 1018.00
1636, 1018.00
1637, 1019.00
1638, 1020.00
1639, 1021.00
1640, 1022.00
1641, 1023.00
1642, 1024.00
1643, 1024.00
1644, 1025.00
1645, 1025.00
1646, 1027.00
1647, 1026.00
1648, 1027.00
1649, 1027.00
1650, 1029.00

1750, 1380.00
1751, 1377.00
1752, 1378.00
1753, 1379.00
1754, 1379.00
1755, 1378.00
1756, 1378.00
1757, 1379.00
1758, 1378.00
1759, 1377.00
1760, 1379.00
1761, 1379.00
1762, 1377.00
1763, 1381.00
1764, 1377.00
1765, 1379.00
1766, 1380.00
1767, 1379.00
1768, 1378.00
1769, 1378.00
1770, 1378.00
1771, 1377.00
1772, 1377.00
1773, 1378.00
1774, 1377.00
1775, 1378.00
1776, 1378.00
1777, 1377.00
1778, 1376.00
1779, 1377.00
1780, 1372.00
1781, 1373.00
1782, 1376.00
1783, 1374.00
1784, 1374.00
1785, 1375.00
1786, 1373.00
1787, 1374.00
1788, 1375.00
1789, 1372.00
1790, 1372.00
1791, 1373.00
1792, 1374.00
1793, 1374.00
1794, 1371.00
1795, 1370.00
1796, 1370.00
1797, 1370.00
1798, 1371.00
1799, 1369.00
1800, 1369.00
1801, 1370.00
1802, 1368.00
1803, 1367.00
1804, 1367.00
1805, 1368.00
1806, 1368.00
1807, 1367.00
1808, 1368.00
1809, 1367.00
1810, 1367.00
1811, 1367.00
1812, 1365.00
1813, 1366.00
1814, 1366.00
1815, 1364.00
1816, 1363.00
1817, 1364.00
1818, 1364.00
1819, 1362.00
1820, 1362.00
1821, 1363.00
1822, 1362.00
1823, 1362.00
1824, 1360.00
1825, 1360.00
1826, 1357.00
1827, 1357.00
1828, 1356.00
1829, 1355.00
1830, 1355.00
1831, 1354.00
1832, 1351.00
1833, 1351.00
1834, 1350.00
1835, 1347.00
1836, 1347.00
1837, 1346.00
1838, 1344.00
1839, 1344.00
1840, 1344.00
1841, 1342.00
1842, 1340.00
1843, 1338.00
1844, 1337.00
1845, 1335.00
1846, 1333.00
1847, 1333.00
1848, 1330.00
1849, 1328.00
1850, 1328.00
1851, 1326.00
1852, 1324.00
1853, 1325.00
1854, 1322.00
1855, 1319.00
1856, 1319.00
1857, 1316.00
1858, 1315.00
1859, 1313.00
1860, 1313.00
1861, 1313.00
1862, 1311.00
1863, 1309.00
1864, 1308.00
1865, 1306.00
1866, 1304.00
1867, 1305.00
1868, 1303.00
1869, 1302.00
1870, 1302.00
1871, 1299.00
1872, 1297.00
1873, 1299.00
1874, 1298.00
1875, 1296.00
1876, 1296.00
1877, 1297.00
1878, 1294.00
1879, 1293.00
1880, 1293.00
1881, 1294.00
1882, 1294.00
1883, 1292.00
1884, 1292.00
1885, 1290.00
1886, 1291.00
1887, 1290.00
1888, 1288.00
1889, 1289.00
1890, 1288.00
1891, 1288.00
1892, 1289.00
1893, 1289.00
1894, 1288.00
1895, 1287.00
1896, 1286.00
1897, 1287.00
1898, 1288.00
1899, 1286.00
1900, 1288.00
1901, 1285.00
1902, 1287.00
1903, 1285.00
1904, 1285.00
1905, 1287.00
1906, 1286.00
1907, 1284.00
1908, 1286.00
1909, 1284.00
1910, 1283.00
1911, 1285.00
1912, 1282.00
1913, 1284.00
1914, 1283.00
1915, 1285.00
1916, 1285.00
1917, 1286.00
1918, 1283.00
1919, 1284.00
1920, 1284.00
1921, 1284.00
1922, 1283.00
1923, 1284.00
1924, 1284.00
1925, 1283.00
1926, 1284.00
1927, 1283.00
1928, 1285.00
1929, 1283.00
1930, 1283.00
1931, 1284.00
1932, 1284.00
1933, 1283.00
1934, 1285.00
1935, 1285.00
1936, 1284.00
1937, 1284.00
1938, 1282.00
1939, 1284.00
1940, 1286.00
1941, 1284.00
1942, 1285.00
1943, 1286.00
1944, 1284.00
1945, 1285.00
1946, 1286.00
1947, 1285.00
1948, 1284.00
1949, 1285.00
1950, 1284.00
1951, 1288.00
1952, 1285.00
1953, 1286.00
1954, 1286.00
1955, 1287.00
1956, 1287.00
1957, 1287.00
1958, 1289.00
1959, 1288.00
1960, 1288.00
1961, 1289.00
1962, 1288.00
1963, 1288.00
1964, 1289.00
1965, 1290.00
1966, 1290.00
1967, 1290.00
1968, 1290.00
1969, 1290.00
1970, 1291.00
1971, 1292.00
1972, 1291.00
1973, 1292.00
1974, 1293.00
1975, 1292.00
1976, 1294.00
1977, 1294.00
1978, 1294.00
1979, 1293.00
1980, 1293.00
1981, 1294.00
1982, 1294.00
1983, 1296.00
1984, 1295.00
1985, 1296.00
1986, 1295.00
1987, 1297.00
1988, 1298.00
1989, 1298.00
1990, 1299.00
1991, 1298.00
1992, 1299.00
1993, 1299.00
1994, 1300.00
1995, 1299.00
1996, 1299.00
1997, 1301.00
1998, 1301.00
1999, 1301.00
2000, 1302.00
2001, 1302.00
2002, 1302.00
2003, 1303.00
2004, 1302.00
2005, 1302.00
2006, 1303.00
2007, 1303.00
2008, 1305.00
2009, 1304.00
2010, 1305.00
2011, 1304.00
2012, 1304.00
2013, 1306.00
2014, 1305.00
2015, 1307.00
2016, 1307.00
2017, 1307.00
2018, 1307.00
2019, 1309.00
2020, 1308.00
2021, 1307.00
2022, 1309.00
2023, 1309.00
2024, 1309.00
2025, 1308.00
2026, 1310.00
2027, 1312.00
2028, 1312.00
2029, 1312.00
2030, 1313.00
2031, 1312.00
2032, 1312.00
2033, 1314.00
2034, 1316.00
2035, 1313.00
2036, 1315.00
2037, 1316.00
2038, 1315.00
2039, 1317.00
2040, 1317.00
2041, 1318.00
2042, 1317.00
2043, 1318.00
2044, 1319.00
2045, 1318.00
2046, 1320.00
2047, 1320.00
2048, 1320.00
2049, 1322.00
2050, 1323.00
2051, 1322.00
2052, 1323.00
2053, 1322.00
2054, 1326.00
2055, 1326.00
2056, 1325.00
2057, 1326.00
2058, 1327.00
2059, 1325.00
2060, 1326.00
2061, 1328.00
2062, 1329.00
2063, 1329.00
2064, 1329.00
2065, 1331.00
2066, 1328.00
2067, 1331.00
2068, 1332.00
2069, 1332.00
2070, 1334.00
2071, 1335.00
2072, 1334.00
2073, 1336.00
2074, 1337.00
2075, 1336.00
2076, 1336.00
2077, 1336.00
2078, 1338.00
2079, 1338.00
2080, 1337.00
2081, 1340.00
2082, 1340.00
2083, 1341.00
2084, 1341.00
2085, 1342.00
2086, 1343.00
2087, 1341.00
2088, 1341.00
2089, 1343.00
2090, 1343.00
2091, 1344.00
2092, 1345.00
2093, 1344.00
2094, 1345.00
2095, 1345.00
2096, 1348.00
2097, 1347.00
2098, 1345.00
2099, 1347.00
2100, 1347.00
2101, 1348.00
2102, 1349.00
2103, 1349.00
2104, 1351.00
2105, 1349.00
2106, 1350.00
2107, 1351.00
2108, 1349.00
2109, 1349.00
2110, 1352.00
2111, 1350.00
2112, 1351.00
2113, 1351.00
2114, 1352.00
2115, 1353.00
2116, 1354.00
2117, 1353.00
2118, 1353.00
2119, 1352.00
2120, 1353.00
2121, 1355.00
2122, 1353.00
2123, 1353.00
2124, 1354.00
2125, 1356.00
2126, 1356.00
2127, 1354.00
2128, 1356.00
2129, 1355.00
2130, 1356.00
2131, 1358.00
2132, 1358.00
2133, 1359.00
2134, 1358.00
2135, 1358.00
2136, 1358.00
2137, 1359.00
2138, 1357.00
2139, 1358.00
2140, 1357.00
2141, 1359.00
2142, 1359.00
2143, 1359.00
2144, 1361.00
2145, 1361.00
2146, 1359.00
2147, 1360.00
2148, 1358.00
2149, 1361.00
2150, 1361.00
