FW version: 24
Log Version: 3.0.3

General Info:
       Command/Macro Performed,            Timestamp,             Device ID, COM Port, UART/I2C, Test Name, Host Major, Host Minor, Host Revision, Host Git Commit
            Single_measurement,  2023_06_27_11_06_29,       Insight2_F4_xxx,    USB-C,      USB,          ,          0,          1,             1,      4031237645

Show Spectrometer Status:
l0_version, f4_version, battery_perc, battery_mVolt, accelerometer_temp, accelerometer_x, accelerometer_y, accelerometer_z, compass_temp, compass_x, compass_y, compass_z, lamp_0, lamp_1, gain_0, gain_1
        17,         24,           95,          2075,               5472,           65384,              88,           18464,            0,     65401,     65374,     65405,   2457,   2457,    1,    1

Temperature Statistic Info:
NTC AVG [°C], NTC2 AVG [°C]
      37.179,        36.863

Statistic Info:
M1:  num,      min,      max,   median,      AVG,      STD,M2:  num,      min,      max,   median,      AVG,      STD
     301,   995.00,  1153.00,  1028.00,  1046.22,  48.7526,     401,  1424.00,  1514.00,  1462.00,  1464.57,  29.5026,

Measurements:
Wavelength, Data Amplitude
1350, 1018.00
1351, 1017.00
1352, 1019.00
1353, 1018.00
1354, 1018.00
1355, 1017.00
1356, 1016.00
1357, 1015.00
1358, 1016.00
1359, 1016.00
1360, 1015.00
1361, 1013.00
1362, 1014.00
1363, 1012.00
1364, 1012.00
1365, 1012.00
1366, 1011.00
1367, 1010.00
1368, 1009.00
1369, 1008.00
1370, 1008.00
1371, 1008.00
1372, 1006.00
1373, 1005.00
1374, 1006.00
1375, 1005.00
1376, 1005.00
1377, 1003.00
1378, 1003.00
1379, 1003.00
1380, 1002.00
1381, 1001.00
1382, 1001.00
1383, 1001.00
1384, 1000.00
1385, 1000.00
1386, 999.00
1387, 999.00
1388, 1000.00
1389, 998.00
1390, 998.00
1391, 997.00
1392, 998.00
1393, 998.00
1394, 998.00
1395, 997.00
1396, 997.00
1397, 997.00
1398, 997.00
1399, 996.00
1400, 996.00
1401, 996.00
1402, 995.00
1403, 996.00
1404, 995.00
1405, 997.00
1406, 996.00
1407, 995.00
1408, 995.00
1409, 995.00
1410, 995.00
1411, 996.00
1412, 996.00
1413, 996.00
1414, 995.00
1415, 995.00
1416, 995.00
1417, 995.00
1418, 995.00
1419, 995.00
1420, 995.00
1421, 996.00
1422, 995.00
1423, 995.00
1424, 995.00
1425, 997.00
1426, 996.00
1427, 996.00
1428, 996.00
1429, 996.00
1430, 996.00
1431, 997.00
1432, 995.00
1433, 996.00
1434, 997.00
1435, 997.00
1436, 998.00
1437, 998.00
1438, 998.00
1439, 998.00
1440, 998.00
1441, 999.00
1442, 998.00
1443, 999.00
1444, 999.00
1445, 1000.00
1446, 1001.00
1447, 1001.00
1448, 1000.00
1449, 1001.00
1450, 1001.00
1451, 1003.00
1452, 1001.00
1453, 1003.00
1454, 1003.00
1455, 1003.00
1456, 1003.00
1457, 1003.00
1458, 1004.00
1459, 1005.00
1460, 1004.00
1461, 1005.00
1462, 1005.00
1463, 1006.00
1464, 1007.00
1465, 1007.00
1466, 1007.00
1467, 1008.00
1468, 1008.00
1469, 1009.00
1470, 1010.00
1471, 1010.00
1472, 1010.00
1473, 1012.00
1474, 1012.00
1475, 1012.00
1476, 1014.00
1477, 1013.00
1478, 1014.00
1479, 1015.00
1480, 1015.00
1481, 1015.00
1482, 1016.00
1483, 1017.00
1484, 1017.00
1485, 1018.00
1486, 1019.00
1487, 1020.00
1488, 1021.00
1489, 1021.00
1490, 1021.00
1491, 1022.00
1492, 1023.00
1493, 1024.00
1494, 1024.00
1495, 1025.00
1496, 1026.00
1497, 1026.00
1498, 1027.00
1499, 1028.00
1500, 1028.00
1501, 1030.00
1502, 1030.00
1503, 1031.00
1504, 1031.00
1505, 1033.00
1506, 1032.00
1507, 1033.00
1508, 1033.00
1509, 1035.00
1510, 1035.00
1511, 1036.00
1512, 1037.00
1513, 1037.00
1514, 1038.00
1515, 1038.00
1516, 1040.00
1517, 1040.00
1518, 1041.00
1519, 1041.00
1520, 1042.00
1521, 1043.00
1522, 1045.00
1523, 1044.00
1524, 1045.00
1525, 1045.00
1526, 1046.00
1527, 1048.00
1528, 1048.00
1529, 1049.00
1530, 1050.00
1531, 1051.00
1532, 1052.00
1533, 1052.00
1534, 1053.00
1535, 1054.00
1536, 1055.00
1537, 1055.00
1538, 1056.00
1539, 1057.00
1540, 1058.00
1541, 1058.00
1542, 1059.00
1543, 1059.00
1544, 1060.00
1545, 1061.00
1546, 1063.00
1547, 1063.00
1548, 1064.00
1549, 1064.00
1550, 1064.00
1551, 1065.00
1552, 1066.00
1553, 1067.00
1554, 1068.00
1555, 1068.00
1556, 1070.00
1557, 1071.00
1558, 1071.00
1559, 1072.00
1560, 1073.00
1561, 1073.00
1562, 1075.00
1563, 1075.00
1564, 1077.00
1565, 1077.00
1566, 1078.00
1567, 1079.00
1568, 1079.00
1569, 1081.00
1570, 1081.00
1571, 1081.00
1572, 1083.00
1573, 1084.00
1574, 1086.00
1575, 1085.00
1576, 1087.00
1577, 1088.00
1578, 1088.00
1579, 1089.00
1580, 1090.00
1581, 1090.00
1582, 1092.00
1583, 1092.00
1584, 1093.00
1585, 1094.00
1586, 1094.00
1587, 1094.00
1588, 1096.00
1589, 1096.00
1590, 1097.00
1591, 1097.00
1592, 1099.00
1593, 1099.00
1594, 1100.00
1595, 1102.00
1596, 1102.00
1597, 1103.00
1598, 1103.00
1599, 1104.00
1600, 1105.00
1601, 1106.00
1602, 1107.00
1603, 1108.00
1604, 1109.00
1605, 1109.00
1606, 1111.00
1607, 1112.00
1608, 1112.00
1609, 1114.00
1610, 1115.00
1611, 1115.00
1612, 1117.00
1613, 1117.00
1614, 1118.00
1615, 1120.00
1616, 1120.00
1617, 1122.00
1618, 1123.00
1619, 1124.00
1620, 1125.00
1621, 1126.00
1622, 1127.00
1623, 1128.00
1624, 1128.00
1625, 1130.00
1626, 1131.00
1627, 1132.00
1628, 1133.00
1629, 1134.00
1630, 1134.00
1631, 1136.00
1632, 1137.00
1633, 1137.00
1634, 1139.00
1635, 1139.00
1636, 1140.00
1637, 1141.00
1638, 1142.00
1639, 1143.00
1640, 1143.00
1641, 1143.00
1642, 1145.00
1643, 1146.00
1644, 1147.00
1645, 1148.00
1646, 1149.00
1647, 1149.00
1648, 1150.00
1649, 1152.00
1650, 1153.00

1750, 1512.00
1751, 1514.00
1752, 1514.00
1753, 1513.00
1754, 1513.00
1755, 1513.00
1756, 1514.00
1757, 1513.00
1758, 1513.00
1759, 1513.00
1760, 1512.00
1761, 1514.00
1762, 1512.00
1763, 1513.00
1764, 1513.00
1765, 1514.00
1766, 1513.00
1767, 1512.00
1768, 1514.00
1769, 1512.00
1770, 1511.00
1771, 1511.00
1772, 1511.00
1773, 1511.00
1774, 1511.00
1775, 1510.00
1776, 1510.00
1777, 1510.00
1778, 1509.00
1779, 1509.00
1780, 1510.00
1781, 1510.00
1782, 1508.00
1783, 1510.00
1784, 1509.00
1785, 1509.00
1786, 1509.00
1787, 1508.00
1788, 1505.00
1789, 1506.00
1790, 1506.00
1791, 1506.00
1792, 1505.00
1793, 1505.00
1794, 1506.00
1795, 1506.00
1796, 1505.00
1797, 1505.00
1798, 1503.00
1799, 1505.00
1800, 1503.00
1801, 1503.00
1802, 1503.00
1803, 1502.00
1804, 1503.00
1805, 1500.00
1806, 1500.00
1807, 1501.00
1808, 1502.00
1809, 1502.00
1810, 1499.00
1811, 1500.00
1812, 1500.00
1813, 1501.00
1814, 1499.00
1815, 1499.00
1816, 1498.00
1817, 1499.00
1818, 1497.00
1819, 1496.00
1820, 1496.00
1821, 1496.00
1822, 1494.00
1823, 1494.00
1824, 1497.00
1825, 1494.00
1826, 1493.00
1827, 1493.00
1828, 1492.00
1829, 1491.00
1830, 1491.00
1831, 1490.00
1832, 1489.00
1833, 1487.00
1834, 1487.00
1835, 1485.00
1836, 1484.00
1837, 1483.00
1838, 1482.00
1839, 1481.00
1840, 1477.00
1841, 1479.00
1842, 1479.00
1843, 1475.00
1844, 1475.00
1845, 1472.00
1846, 1471.00
1847, 1471.00
1848, 1469.00
1849, 1467.00
1850, 1466.00
1851, 1465.00
1852, 1465.00
1853, 1462.00
1854, 1460.00
1855, 1459.00
1856, 1459.00
1857, 1457.00
1858, 1454.00
1859, 1453.00
1860, 1453.00
1861, 1451.00
1862, 1450.00
1863, 1448.00
1864, 1446.00
1865, 1447.00
1866, 1446.00
1867, 1444.00
1868, 1443.00
1869, 1443.00
1870, 1441.00
1871, 1441.00
1872, 1440.00
1873, 1441.00
1874, 1440.00
1875, 1438.00
1876, 1439.00
1877, 1437.00
1878, 1436.00
1879, 1436.00
1880, 1435.00
1881, 1436.00
1882, 1436.00
1883, 1433.00
1884, 1433.00
1885, 1433.00
1886, 1433.00
1887, 1433.00
1888, 1431.00
1889, 1432.00
1890, 1431.00
1891, 1430.00
1892, 1431.00
1893, 1431.00
1894, 1431.00
1895, 1429.00
1896, 1429.00
1897, 1429.00
1898, 1428.00
1899, 1429.00
1900, 1428.00
1901, 1428.00
1902, 1428.00
1903, 1427.00
1904, 1427.00
1905, 1429.00
1906, 1427.00
1907, 1426.00
1908, 1428.00
1909, 1426.00
1910, 1427.00
1911, 1427.00
1912, 1426.00
1913, 1426.00
1914, 1427.00
1915, 1427.00
1916, 1426.00
1917, 1426.00
1918, 1426.00
1919, 1425.00
1920, 1425.00
1921, 1427.00
1922, 1424.00
1923, 1426.00
1924, 1425.00
1925, 1426.00
1926, 1427.00
1927, 1424.00
1928, 1425.00
1929, 1425.00
1930, 1428.00
1931, 1425.00
1932, 1426.00
1933, 1427.00
1934, 1424.00
1935, 1425.00
1936, 1426.00
1937, 1425.00
1938, 1425.00
1939, 1426.00
1940, 1427.00
1941, 1425.00
1942, 1426.00
1943, 1426.00
1944, 1427.00
1945, 1427.00
1946, 1427.00
1947, 1427.00
1948, 1427.00
1949, 1427.00
1950, 1429.00
1951, 1427.00
1952, 1429.00
1953, 1429.00
1954, 1429.00
1955, 1429.00
1956, 1428.00
1957, 1429.00
1958, 1429.00
1959, 1429.00
1960, 1430.00
1961, 1429.00
1962, 1432.00
1963, 1430.00
1964, 1431.00
1965, 1431.00
1966, 1430.00
1967, 1432.00
1968, 1432.00
1969, 1432.00
1970, 1432.00
1971, 1434.00
1972, 1434.00
1973, 1433.00
1974, 1432.00
1975, 1434.00
1976, 1433.00
1977, 1435.00
1978, 1436.00
1979, 1433.00
1980, 1435.00
1981, 1434.00
1982, 1435.00
1983, 1436.00
1984, 1436.00
1985, 1436.00
1986, 1438.00
1987, 1438.00
1988, 1438.00
1989, 1437.00
1990, 1440.00
1991, 1439.00
1992, 1438.00
1993, 1441.00
1994, 1440.00
1995, 1439.00
1996, 1442.00
1997, 1439.00
1998, 1442.00
1999, 1442.00
2000, 1443.00
2001, 1443.00
2002, 1441.00
2003, 1443.00
2004, 1443.00
2005, 1443.00
2006, 1444.00
2007, 1444.00
2008, 1445.00
2009, 1445.00
2010, 1445.00
2011, 1445.00
2012, 1447.00
2013, 1447.00
2014, 1447.00
2015, 1447.00
2016, 1448.00
2017, 1446.00
2018, 1448.00
2019, 1449.00
2020, 1448.00
2021, 1449.00
2022, 1448.00
2023, 1448.00
2024, 1450.00
2025, 1450.00
2026, 1451.00
2027, 1450.00
2028, 1450.00
2029, 1450.00
2030, 1451.00
2031, 1452.00
2032, 1454.00
2033, 1453.00
2034, 1453.00
2035, 1453.00
2036, 1454.00
2037, 1455.00
2038, 1456.00
2039, 1456.00
2040, 1455.00
2041, 1456.00
2042, 1456.00
2043, 1458.00
2044, 1456.00
2045, 1457.00
2046, 1460.00
2047, 1460.00
2048, 1459.00
2049, 1459.00
2050, 1461.00
2051, 1460.00
2052, 1462.00
2053, 1464.00
2054, 1461.00
2055, 1464.00
2056, 1463.00
2057, 1464.00
2058, 1466.00
2059, 1466.00
2060, 1465.00
2061, 1465.00
2062, 1466.00
2063, 1467.00
2064, 1468.00
2065, 1469.00
2066, 1469.00
2067, 1469.00
2068, 1471.00
2069, 1471.00
2070, 1470.00
2071, 1471.00
2072, 1472.00
2073, 1473.00
2074, 1474.00
2075, 1473.00
2076, 1475.00
2077, 1474.00
2078, 1474.00
2079, 1475.00
2080, 1476.00
2081, 1476.00
2082, 1477.00
2083, 1477.00
2084, 1479.00
2085, 1478.00
2086, 1478.00
2087, 1479.00
2088, 1481.00
2089, 1478.00
2090, 1480.00
2091, 1481.00
2092, 1480.00
2093, 1481.00
2094, 1483.00
2095, 1482.00
2096, 1484.00
2097, 1484.00
2098, 1482.00
2099, 1484.00
2100, 1484.00
2101, 1485.00
2102, 1484.00
2103, 1486.00
2104, 1485.00
2105, 1486.00
2106, 1485.00
2107, 1485.00
2108, 1487.00
2109, 1486.00
2110, 1485.00
2111, 1486.00
2112, 1486.00
2113, 1488.00
2114, 1487.00
2115, 1489.00
2116, 1489.00
2117, 1487.00
2118, 1489.00
2119, 1490.00
2120, 1490.00
2121, 1491.00
2122, 1492.00
2123, 1488.00
2124, 1491.00
2125, 1489.00
2126, 1490.00
2127, 1491.00
2128, 1492.00
2129, 1491.00
2130, 1491.00
2131, 1493.00
2132, 1493.00
2133, 1493.00
2134, 1493.00
2135, 1493.00
2136, 1493.00
2137, 1493.00
2138, 1493.00
2139, 1492.00
2140, 1491.00
2141, 1493.00
2142, 1494.00
2143, 1495.00
2144, 1493.00
2145, 1494.00
2146, 1494.00
2147, 1495.00
2148, 1495.00
2149, 1495.00
2150, 1495.00
