FW version: 24
Log Version: 3.0.3

General Info:
       Command/Macro Performed,            Timestamp,             Device ID, COM Port, UART/I2C, Test Name, Host Major, Host Minor, Host Revision, Host Git Commit
            Single_measurement,  2023_06_27_11_32_24,       Insight2_F4_xxx,    USB-C,      USB,          ,          0,          1,             1,      4031237645

Show Spectrometer Status:
l0_version, f4_version, battery_perc, battery_mVolt, accelerometer_temp, accelerometer_x, accelerometer_y, accelerometer_z, compass_temp, compass_x, compass_y, compass_z, lamp_0, lamp_1, gain_0, gain_1
        17,         24,           95,          2078,               5328,           65288,              88,           18412,            0,     65436,     65402,     65533,   2457,   2457,    1,    1

Temperature Statistic Info:
NTC AVG [°C], NTC2 AVG [°C]
      36.380,        36.062

Statistic Info:
M1:  num,      min,      max,   median,      AVG,      STD,M2:  num,      min,      max,   median,      AVG,      STD
     301,   878.00,   994.00,   903.00,   915.73,  34.8095,     401,  1263.00,  1343.00,  1294.00,  1297.79,  25.5443,

Measurements:
Wavelength, Data Amplitude
1350, 897.00
1351, 899.00
1352, 897.00
1353, 897.00
1354, 897.00
1355, 897.00
1356, 896.00
1357, 896.00
1358, 895.00
1359, 895.00
1360, 895.00
1361, 894.00
1362, 894.00
1363, 893.00
1364, 893.00
1365, 893.00
1366, 891.00
1367, 891.00
1368, 891.00
1369, 889.00
1370, 890.00
1371, 889.00
1372, 889.00
1373, 887.00
1374, 888.00
1375, 887.00
1376, 887.00
1377, 885.00
1378, 885.00
1379, 885.00
1380, 885.00
1381, 884.00
1382, 883.00
1383, 884.00
1384, 883.00
1385, 884.00
1386, 883.00
1387, 882.00
1388, 882.00
1389, 883.00
1390, 882.00
1391, 882.00
1392, 881.00
1393, 882.00
1394, 881.00
1395, 881.00
1396, 881.00
1397, 881.00
1398, 881.00
1399, 880.00
1400, 881.00
1401, 880.00
1402, 879.00
1403, 879.00
1404, 881.00
1405, 880.00
1406, 880.00
1407, 880.00
1408, 879.00
1409, 879.00
1410, 879.00
1411, 878.00
1412, 879.00
1413, 879.00
1414, 878.00
1415, 879.00
1416, 880.00
1417, 878.00
1418, 879.00
1419, 878.00
1420, 879.00
1421, 878.00
1422, 878.00
1423, 879.00
1424, 879.00
1425, 880.00
1426, 879.00
1427, 880.00
1428, 879.00
1429, 880.00
1430, 880.00
1431, 880.00
1432, 879.00
1433, 881.00
1434, 881.00
1435, 881.00
1436, 881.00
1437, 881.00
1438, 881.00
1439, 882.00
1440, 881.00
1441, 881.00
1442, 881.00
1443, 882.00
1444, 882.00
1445, 882.00
1446, 883.00
1447, 882.00
1448, 883.00
1449, 883.00
1450, 883.00
1451, 883.00
1452, 884.00
1453, 884.00
1454, 885.00
1455, 885.00
1456, 885.00
1457, 884.00
1458, 884.00
1459, 885.00
1460, 886.00
1461, 886.00
1462, 887.00
1463, 886.00
1464, 887.00
1465, 887.00
1466, 889.00
1467, 888.00
1468, 888.00
1469, 889.00
1470, 889.00
1471, 890.00
1472, 890.00
1473, 891.00
1474, 890.00
1475, 891.00
1476, 892.00
1477, 892.00
1478, 892.00
1479, 892.00
1480, 893.00
1481, 894.00
1482, 894.00
1483, 894.00
1484, 895.00
1485, 896.00
1486, 896.00
1487, 897.00
1488, 897.00
1489, 897.00
1490, 898.00
1491, 898.00
1492, 899.00
1493, 899.00
1494, 899.00
1495, 900.00
1496, 900.00
1497, 901.00
1498, 901.00
1499, 902.00
1500, 903.00
1501, 903.00
1502, 904.00
1503, 904.00
1504, 904.00
1505, 905.00
1506, 906.00
1507, 906.00
1508, 906.00
1509, 908.00
1510, 906.00
1511, 907.00
1512, 909.00
1513, 910.00
1514, 910.00
1515, 911.00
1516, 911.00
1517, 912.00
1518, 912.00
1519, 913.00
1520, 913.00
1521, 913.00
1522, 914.00
1523, 914.00
1524, 915.00
1525, 916.00
1526, 916.00
1527, 917.00
1528, 917.00
1529, 918.00
1530, 918.00
1531, 919.00
1532, 920.00
1533, 921.00
1534, 920.00
1535, 921.00
1536, 922.00
1537, 922.00
1538, 923.00
1539, 923.00
1540, 925.00
1541, 925.00
1542, 925.00
1543, 926.00
1544, 925.00
1545, 926.00
1546, 927.00
1547, 927.00
1548, 927.00
1549, 929.00
1550, 929.00
1551, 930.00
1552, 929.00
1553, 931.00
1554, 931.00
1555, 932.00
1556, 932.00
1557, 932.00
1558, 934.00
1559, 933.00
1560, 935.00
1561, 934.00
1562, 935.00
1563, 936.00
1564, 937.00
1565, 937.00
1566, 939.00
1567, 939.00
1568, 940.00
1569, 941.00
1570, 940.00
1571, 940.00
1572, 941.00
1573, 942.00
1574, 943.00
1575, 943.00
1576, 944.00
1577, 945.00
1578, 946.00
1579, 945.00
1580, 946.00
1581, 947.00
1582, 947.00
1583, 948.00
1584, 948.00
1585, 949.00
1586, 950.00
1587, 950.00
1588, 951.00
1589, 951.00
1590, 952.00
1591, 953.00
1592, 953.00
1593, 953.00
1594, 954.00
1595, 954.00
1596, 954.00
1597, 956.00
1598, 956.00
1599, 958.00
1600, 956.00
1601, 958.00
1602, 959.00
1603, 959.00
1604, 961.00
1605, 961.00
1606, 961.00
1607, 962.00
1608, 963.00
1609, 964.00
1610, 964.00
1611, 966.00
1612, 965.00
1613, 966.00
1614, 967.00
1615, 967.00
1616, 969.00
1617, 970.00
1618, 970.00
1619, 971.00
1620, 972.00
1621, 973.00
1622, 973.00
1623, 974.00
1624, 974.00
1625, 976.00
1626, 976.00
1627, 977.00
1628, 977.00
1629, 979.00
1630, 980.00
1631, 979.00
1632, 980.00
1633, 981.00
1634, 982.00
1635, 982.00
1636, 983.00
1637, 984.00
1638, 984.00
1639, 985.00
1640, 986.00
1641, 987.00
1642, 987.00
1643, 987.00
1644, 989.00
1645, 988.00
1646, 990.00
1647, 991.00
1648, 991.00
1649, 992.00
1650, 994.00

1750, 1341.00
1751, 1339.00
1752, 1340.00
1753, 1340.00
1754, 1341.00
1755, 1342.00
1756, 1340.00
1757, 1340.00
1758, 1343.00
1759, 1341.00
1760, 1339.00
1761, 1340.00
1762, 1340.00
1763, 1341.00
1764, 1341.00
1765, 1340.00
1766, 1340.00
1767, 1340.00
1768, 1339.00
1769, 1340.00
1770, 1341.00
1771, 1340.00
1772, 1339.00
1773, 1341.00
1774, 1339.00
1775, 1338.00
1776, 1337.00
1777, 1340.00
1778, 1339.00
1779, 1338.00
1780, 1337.00
1781, 1337.00
1782, 1337.00
1783, 1339.00
1784, 1338.00
1785, 1337.00
1786, 1337.00
1787, 1336.00
1788, 1336.00
1789, 1336.00
1790, 1336.00
1791, 1336.00
1792, 1337.00
1793, 1335.00
1794, 1334.00
1795, 1333.00
1796, 1333.00
1797, 1334.00
1798, 1334.00
1799, 1333.00
1800, 1331.00
1801, 1333.00
1802, 1331.00
1803, 1333.00
1804, 1331.00
1805, 1331.00
1806, 1330.00
1807, 1332.00
1808, 1329.00
1809, 1331.00
1810, 1330.00
1811, 1329.00
1812, 1328.00
1813, 1330.00
1814, 1328.00
1815, 1329.00
1816, 1327.00
1817, 1329.00
1818, 1328.00
1819, 1324.00
1820, 1327.00
1821, 1325.00
1822, 1326.00
1823, 1325.00
1824, 1325.00
1825, 1324.00
1826, 1323.00
1827, 1323.00
1828, 1321.00
1829, 1321.00
1830, 1319.00
1831, 1320.00
1832, 1318.00
1833, 1317.00
1834, 1318.00
1835, 1317.00
1836, 1314.00
1837, 1314.00
1838, 1313.00
1839, 1313.00
1840, 1312.00
1841, 1310.00
1842, 1308.00
1843, 1307.00
1844, 1306.00
1845, 1306.00
1846, 1304.00
1847, 1301.00
1848, 1300.00
1849, 1301.00
1850, 1299.00
1851, 1298.00
1852, 1295.00
1853, 1293.00
1854, 1296.00
1855, 1293.00
1856, 1290.00
1857, 1290.00
1858, 1290.00
1859, 1290.00
1860, 1287.00
1861, 1286.00
1862, 1285.00
1863, 1283.00
1864, 1282.00
1865, 1282.00
1866, 1281.00
1867, 1282.00
1868, 1281.00
1869, 1279.00
1870, 1280.00
1871, 1279.00
1872, 1277.00
1873, 1277.00
1874, 1275.00
1875, 1274.00
1876, 1273.00
1877, 1275.00
1878, 1274.00
1879, 1272.00
1880, 1271.00
1881, 1272.00
1882, 1274.00
1883, 1270.00
1884, 1271.00
1885, 1270.00
1886, 1270.00
1887, 1271.00
1888, 1269.00
1889, 1269.00
1890, 1268.00
1891, 1269.00
1892, 1269.00
1893, 1270.00
1894, 1269.00
1895, 1268.00
1896, 1268.00
1897, 1268.00
1898, 1268.00
1899, 1267.00
1900, 1266.00
1901, 1267.00
1902, 1267.00
1903, 1267.00
1904, 1268.00
1905, 1267.00
1906, 1266.00
1907, 1267.00
1908, 1266.00
1909, 1266.00
1910, 1266.00
1911, 1268.00
1912, 1265.00
1913, 1268.00
1914, 1266.00
1915, 1267.00
1916, 1265.00
1917, 1266.00
1918, 1266.00
1919, 1263.00
1920, 1265.00
1921, 1264.00
1922, 1264.00
1923, 1266.00
1924, 1265.00
1925, 1265.00
1926, 1263.00
1927, 1263.00
1928, 1265.00
1929, 1267.00
1930, 1265.00
1931, 1265.00
1932, 1265.00
1933, 1265.00
1934, 1265.00
1935, 1265.00
1936, 1265.00
1937, 1265.00
1938, 1265.00
1939, 1266.00
1940, 1265.00
1941, 1265.00
1942, 1266.00
1943, 1267.00
1944, 1264.00
1945, 1266.00
1946, 1266.00
1947, 1266.00
1948, 1266.00
1949, 1266.00
1950, 1266.00
1951, 1265.00
1952, 1265.00
1953, 1266.00
1954, 1268.00
1955, 1269.00
1956, 1268.00
1957, 1267.00
1958, 1267.00
1959, 1268.00
1960, 1269.00
1961, 1269.00
1962, 1270.00
1963, 1269.00
1964, 1269.00
1965, 1268.00
1966, 1269.00
1967, 1269.00
1968, 1269.00
1969, 1268.00
1970, 1269.00
1971, 1271.00
1972, 1271.00
1973, 1271.00
1974, 1272.00
1975, 1272.00
1976, 1272.00
1977, 1272.00
1978, 1272.00
1979, 1272.00
1980, 1272.00
1981, 1272.00
1982, 1273.00
1983, 1274.00
1984, 1273.00
1985, 1273.00
1986, 1275.00
1987, 1275.00
1988, 1274.00
1989, 1276.00
1990, 1274.00
1991, 1278.00
1992, 1277.00
1993, 1275.00
1994, 1275.00
1995, 1279.00
1996, 1276.00
1997, 1277.00
1998, 1276.00
1999, 1278.00
2000, 1277.00
2001, 1279.00
2002, 1278.00
2003, 1280.00
2004, 1279.00
2005, 1278.00
2006, 1278.00
2007, 1280.00
2008, 1279.00
2009, 1280.00
2010, 1278.00
2011, 1281.00
2012, 1281.00
2013, 1282.00
2014, 1281.00
2015, 1281.00
2016, 1282.00
2017, 1284.00
2018, 1283.00
2019, 1282.00
2020, 1283.00
2021, 1285.00
2022, 1284.00
2023, 1283.00
2024, 1285.00
2025, 1283.00
2026, 1285.00
2027, 1284.00
2028, 1285.00
2029, 1286.00
2030, 1287.00
2031, 1287.00
2032, 1285.00
2033, 1287.00
2034, 1285.00
2035, 1289.00
2036, 1288.00
2037, 1289.00
2038, 1289.00
2039, 1289.00
2040, 1290.00
2041, 1290.00
2042, 1291.00
2043, 1290.00
2044, 1291.00
2045, 1293.00
2046, 1290.00
2047, 1291.00
2048, 1292.00
2049, 1293.00
2050, 1293.00
2051, 1294.00
2052, 1294.00
2053, 1295.00
2054, 1294.00
2055, 1294.00
2056, 1296.00
2057, 1295.00
2058, 1298.00
2059, 1298.00
2060, 1297.00
2061, 1298.00
2062, 1299.00
2063, 1300.00
2064, 1299.00
2065, 1300.00
2066, 1300.00
2067, 1301.00
2068, 1301.00
2069, 1300.00
2070, 1302.00
2071, 1303.00
2072, 1303.00
2073, 1302.00
2074, 1304.00
2075, 1305.00
2076, 1305.00
2077, 1305.00
2078, 1306.00
2079, 1306.00
2080, 1305.00
2081, 1308.00
2082, 1307.00
2083, 1307.00
2084, 1308.00
2085, 1308.00
2086, 1309.00
2087, 1311.00
2088, 1309.00
2089, 1310.00
2090, 1310.00
2091, 1310.00
2092, 1312.00
2093, 1311.00
2094, 1314.00
2095, 1312.00
2096, 1312.00
2097, 1312.00
2098, 1313.00
2099, 1314.00
2100, 1314.00
2101, 1313.00
2102, 1313.00
2103, 1315.00
2104, 1316.00
2105, 1314.00
2106, 1313.00
2107, 1315.00
2108, 1316.00
2109, 1317.00
2110, 1316.00
2111, 1316.00
2112, 1317.00
2113, 1316.00
2114, 1316.00
2115, 1316.00
2116, 1316.00
2117, 1318.00
2118, 1319.00
2119, 1319.00
2120, 1319.00
2121, 1317.00
2122, 1319.00
2123, 1320.00
2124, 1319.00
2125, 1320.00
2126, 1319.00
2127, 1319.00
2128, 1320.00
2129, 1320.00
2130, 1320.00
2131, 1319.00
2132, 1319.00
2133, 1320.00
2134, 1321.00
2135, 1322.00
2136, 1321.00
2137, 1321.00
2138, 1320.00
2139, 1323.00
2140, 1322.00
2141, 1322.00
2142, 1323.00
2143, 1323.00
2144, 1323.00
2145, 1321.00
2146, 1323.00
2147, 1324.00
2148, 1323.00
2149, 1323.00
2150, 1323.00
