FW version: 24
Log Version: 3.0.3

General Info:
       Command/Macro Performed,            Timestamp,             Device ID, COM Port, UART/I2C, Test Name, Host Major, Host Minor, Host Revision, Host Git Commit
            Single_measurement,  2023_06_29_11_42_40,       Insight2_F4_xxx,    USB-C,      USB,          ,          0,          1,             1,      4031237645

Show Spectrometer Status:
l0_version, f4_version, battery_perc, battery_mVolt, accelerometer_temp, accelerometer_x, accelerometer_y, accelerometer_z, compass_temp, compass_x, compass_y, compass_z, lamp_0, lamp_1, gain_0, gain_1
        17,         24,           95,          2079,               5824,           65360,           65476,           18436,            0,     65398,     65511,     65527,   2047,   2047,      1,      1

Temperature Statistic Info:
NTC AVG [°C], NTC2 AVG [°C]
      37.497,        37.150

Statistic Info:
M1:  num,      min,      max,   median,      AVG,      STD,M2:  num,      min,      max,   median,      AVG,      STD
     301,   974.00,  1134.00,  1008.00,  1027.65,  50.7437,     401,  1414.00,  1513.00,  1456.00,  1459.23,  32.6713,

Measurements:
Wavelength, Data Amplitude
1350, 1000.00
1351, 1000.00
1352, 999.00
1353, 999.00
1354, 997.00
1355, 997.00
1356, 998.00
1357, 997.00
1358, 997.00
1359, 995.00
1360, 995.00
1361, 994.00
1362, 994.00
1363, 994.00
1364, 991.00
1365, 992.00
1366, 992.00
1367, 991.00
1368, 989.00
1369, 988.00
1370, 989.00
1371, 989.00
1372, 988.00
1373, 987.00
1374, 986.00
1375, 985.00
1376, 983.00
1377, 983.00
1378, 982.00
1379, 983.00
1380, 982.00
1381, 981.00
1382, 981.00
1383, 981.00
1384, 980.00
1385, 979.00
1386, 979.00
1387, 978.00
1388, 978.00
1389, 978.00
1390, 978.00
1391, 978.00
1392, 977.00
1393, 977.00
1394, 976.00
1395, 976.00
1396, 977.00
1397, 976.00
1398, 977.00
1399, 976.00
1400, 976.00
1401, 976.00
1402, 976.00
1403, 976.00
1404, 977.00
1405, 976.00
1406, 975.00
1407, 975.00
1408, 976.00
1409, 975.00
1410, 975.00
1411, 975.00
1412, 975.00
1413, 975.00
1414, 975.00
1415, 975.00
1416, 975.00
1417, 974.00
1418, 974.00
1419, 974.00
1420, 975.00
1421, 975.00
1422, 975.00
1423, 974.00
1424, 975.00
1425, 975.00
1426, 976.00
1427, 975.00
1428, 975.00
1429, 975.00
1430, 975.00
1431, 976.00
1432, 976.00
1433, 977.00
1434, 977.00
1435, 976.00
1436, 977.00
1437, 977.00
1438, 977.00
1439, 978.00
1440, 977.00
1441, 977.00
1442, 979.00
1443, 978.00
1444, 978.00
1445, 979.00
1446, 979.00
1447, 979.00
1448, 980.00
1449, 979.00
1450, 981.00
1451, 981.00
1452, 981.00
1453, 982.00
1454, 982.00
1455, 982.00
1456, 983.00
1457, 983.00
1458, 983.00
1459, 983.00
1460, 983.00
1461, 984.00
1462, 985.00
1463, 986.00
1464, 986.00
1465, 987.00
1466, 986.00
1467, 988.00
1468, 988.00
1469, 989.00
1470, 989.00
1471, 989.00
1472, 990.00
1473, 990.00
1474, 991.00
1475, 993.00
1476, 993.00
1477, 993.00
1478, 993.00
1479, 994.00
1480, 995.00
1481, 995.00
1482, 996.00
1483, 997.00
1484, 997.00
1485, 997.00
1486, 999.00
1487, 999.00
1488, 1000.00
1489, 1001.00
1490, 1001.00
1491, 1002.00
1492, 1002.00
1493, 1004.00
1494, 1005.00
1495, 1005.00
1496, 1005.00
1497, 1007.00
1498, 1007.00
1499, 1007.00
1500, 1008.00
1501, 1009.00
1502, 1009.00
1503, 1010.00
1504, 1011.00
1505, 1011.00
1506, 1012.00
1507, 1013.00
1508, 1013.00
1509, 1013.00
1510, 1016.00
1511, 1015.00
1512, 1016.00
1513, 1017.00
1514, 1019.00
1515, 1019.00
1516, 1020.00
1517, 1021.00
1518, 1022.00
1519, 1022.00
1520, 1023.00
1521, 1024.00
1522, 1024.00
1523, 1025.00
1524, 1027.00
1525, 1028.00
1526, 1028.00
1527, 1029.00
1528, 1030.00
1529, 1030.00
1530, 1031.00
1531, 1032.00
1532, 1033.00
1533, 1034.00
1534, 1035.00
1535, 1035.00
1536, 1037.00
1537, 1037.00
1538, 1038.00
1539, 1039.00
1540, 1039.00
1541, 1041.00
1542, 1040.00
1543, 1042.00
1544, 1043.00
1545, 1044.00
1546, 1044.00
1547, 1045.00
1548, 1046.00
1549, 1046.00
1550, 1046.00
1551, 1049.00
1552, 1049.00
1553, 1050.00
1554, 1050.00
1555, 1052.00
1556, 1053.00
1557, 1053.00
1558, 1054.00
1559, 1055.00
1560, 1056.00
1561, 1057.00
1562, 1058.00
1563, 1060.00
1564, 1060.00
1565, 1060.00
1566, 1062.00
1567, 1063.00
1568, 1063.00
1569, 1063.00
1570, 1065.00
1571, 1066.00
1572, 1067.00
1573, 1068.00
1574, 1069.00
1575, 1070.00
1576, 1071.00
1577, 1072.00
1578, 1072.00
1579, 1073.00
1580, 1074.00
1581, 1075.00
1582, 1076.00
1583, 1076.00
1584, 1077.00
1585, 1078.00
1586, 1078.00
1587, 1080.00
1588, 1080.00
1589, 1081.00
1590, 1082.00
1591, 1082.00
1592, 1084.00
1593, 1084.00
1594, 1084.00
1595, 1086.00
1596, 1087.00
1597, 1088.00
1598, 1089.00
1599, 1089.00
1600, 1090.00
1601, 1092.00
1602, 1091.00
1603, 1092.00
1604, 1093.00
1605, 1094.00
1606, 1096.00
1607, 1097.00
1608, 1099.00
1609, 1098.00
1610, 1100.00
1611, 1100.00
1612, 1101.00
1613, 1102.00
1614, 1105.00
1615, 1105.00
1616, 1105.00
1617, 1107.00
1618, 1108.00
1619, 1110.00
1620, 1110.00
1621, 1111.00
1622, 1111.00
1623, 1113.00
1624, 1114.00
1625, 1116.00
1626, 1115.00
1627, 1117.00
1628, 1118.00
1629, 1119.00
1630, 1119.00
1631, 1120.00
1632, 1121.00
1633, 1122.00
1634, 1123.00
1635, 1124.00
1636, 1125.00
1637, 1125.00
1638, 1126.00
1639, 1128.00
1640, 1128.00
1641, 1129.00
1642, 1128.00
1643, 1129.00
1644, 1130.00
1645, 1130.00
1646, 1131.00
1647, 1132.00
1648, 1133.00
1649, 1133.00
1650, 1134.00

1750, 1512.00
1751, 1511.00
1752, 1511.00
1753, 1511.00
1754, 1511.00
1755, 1513.00
1756, 1511.00
1757, 1511.00
1758, 1512.00
1759, 1511.00
1760, 1512.00
1761, 1512.00
1762, 1513.00
1763, 1510.00
1764, 1511.00
1765, 1512.00
1766, 1513.00
1767, 1510.00
1768, 1509.00
1769, 1511.00
1770, 1511.00
1771, 1509.00
1772, 1512.00
1773, 1511.00
1774, 1509.00
1775, 1508.00
1776, 1511.00
1777, 1509.00
1778, 1508.00
1779, 1508.00
1780, 1509.00
1781, 1509.00
1782, 1507.00
1783, 1507.00
1784, 1507.00
1785, 1506.00
1786, 1507.00
1787, 1507.00
1788, 1504.00
1789, 1505.00
1790, 1505.00
1791, 1506.00
1792, 1504.00
1793, 1504.00
1794, 1504.00
1795, 1504.00
1796, 1503.00
1797, 1503.00
1798, 1502.00
1799, 1502.00
1800, 1501.00
1801, 1501.00
1802, 1504.00
1803, 1502.00
1804, 1501.00
1805, 1500.00
1806, 1501.00
1807, 1499.00
1808, 1500.00
1809, 1500.00
1810, 1499.00
1811, 1500.00
1812, 1498.00
1813, 1498.00
1814, 1499.00
1815, 1498.00
1816, 1497.00
1817, 1495.00
1818, 1496.00
1819, 1494.00
1820, 1494.00
1821, 1494.00
1822, 1493.00
1823, 1493.00
1824, 1492.00
1825, 1491.00
1826, 1489.00
1827, 1490.00
1828, 1489.00
1829, 1487.00
1830, 1487.00
1831, 1485.00
1832, 1484.00
1833, 1485.00
1834, 1484.00
1835, 1481.00
1836, 1481.00
1837, 1480.00
1838, 1477.00
1839, 1476.00
1840, 1474.00
1841, 1474.00
1842, 1471.00
1843, 1470.00
1844, 1469.00
1845, 1467.00
1846, 1466.00
1847, 1466.00
1848, 1463.00
1849, 1462.00
1850, 1460.00
1851, 1459.00
1852, 1457.00
1853, 1456.00
1854, 1454.00
1855, 1453.00
1856, 1450.00
1857, 1450.00
1858, 1449.00
1859, 1448.00
1860, 1444.00
1861, 1444.00
1862, 1442.00
1863, 1443.00
1864, 1441.00
1865, 1438.00
1866, 1438.00
1867, 1437.00
1868, 1437.00
1869, 1435.00
1870, 1435.00
1871, 1432.00
1872, 1431.00
1873, 1432.00
1874, 1431.00
1875, 1428.00
1876, 1431.00
1877, 1430.00
1878, 1428.00
1879, 1427.00
1880, 1426.00
1881, 1427.00
1882, 1425.00
1883, 1425.00
1884, 1425.00
1885, 1424.00
1886, 1423.00
1887, 1423.00
1888, 1423.00
1889, 1423.00
1890, 1423.00
1891, 1422.00
1892, 1421.00
1893, 1421.00
1894, 1421.00
1895, 1419.00
1896, 1420.00
1897, 1419.00
1898, 1418.00
1899, 1418.00
1900, 1419.00
1901, 1419.00
1902, 1417.00
1903, 1419.00
1904, 1418.00
1905, 1420.00
1906, 1420.00
1907, 1419.00
1908, 1417.00
1909, 1417.00
1910, 1417.00
1911, 1417.00
1912, 1417.00
1913, 1417.00
1914, 1418.00
1915, 1417.00
1916, 1415.00
1917, 1416.00
1918, 1417.00
1919, 1416.00
1920, 1418.00
1921, 1416.00
1922, 1416.00
1923, 1414.00
1924, 1416.00
1925, 1415.00
1926, 1416.00
1927, 1416.00
1928, 1416.00
1929, 1417.00
1930, 1415.00
1931, 1417.00
1932, 1416.00
1933, 1417.00
1934, 1416.00
1935, 1417.00
1936, 1416.00
1937, 1417.00
1938, 1416.00
1939, 1417.00
1940, 1416.00
1941, 1416.00
1942, 1417.00
1943, 1418.00
1944, 1418.00
1945, 1418.00
1946, 1418.00
1947, 1417.00
1948, 1418.00
1949, 1417.00
1950, 1419.00
1951, 1419.00
1952, 1418.00
1953, 1419.00
1954, 1419.00
1955, 1419.00
1956, 1418.00
1957, 1420.00
1958, 1419.00
1959, 1420.00
1960, 1420.00
1961, 1420.00
1962, 1421.00
1963, 1421.00
1964, 1422.00
1965, 1421.00
1966, 1422.00
1967, 1422.00
1968, 1423.00
1969, 1424.00
1970, 1425.00
1971, 1424.00
1972, 1423.00
1973, 1425.00
1974, 1425.00
1975, 1424.00
1976, 1425.00
1977, 1424.00
1978, 1427.00
1979, 1427.00
1980, 1425.00
1981, 1427.00
1982, 1427.00
1983, 1427.00
1984, 1427.00
1985, 1428.00
1986, 1429.00
1987, 1430.00
1988, 1429.00
1989, 1428.00
1990, 1429.00
1991, 1431.00
1992, 1431.00
1993, 1433.00
1994, 1431.00
1995, 1432.00
1996, 1433.00
1997, 1433.00
1998, 1433.00
1999, 1435.00
2000, 1435.00
2001, 1434.00
2002, 1435.00
2003, 1436.00
2004, 1436.00
2005, 1436.00
2006, 1435.00
2007, 1437.00
2008, 1437.00
2009, 1437.00
2010, 1438.00
2011, 1437.00
2012, 1438.00
2013, 1440.00
2014, 1440.00
2015, 1438.00
2016, 1440.00
2017, 1441.00
2018, 1441.00
2019, 1440.00
2020, 1442.00
2021, 1443.00
2022, 1440.00
2023, 1443.00
2024, 1442.00
2025, 1442.00
2026, 1443.00
2027, 1443.00
2028, 1444.00
2029, 1445.00
2030, 1445.00
2031, 1446.00
2032, 1445.00
2033, 1445.00
2034, 1448.00
2035, 1448.00
2036, 1448.00
2037, 1449.00
2038, 1448.00
2039, 1450.00
2040, 1450.00
2041, 1449.00
2042, 1451.00
2043, 1450.00
2044, 1451.00
2045, 1453.00
2046, 1455.00
2047, 1454.00
2048, 1452.00
2049, 1454.00
2050, 1455.00
2051, 1456.00
2052, 1455.00
2053, 1458.00
2054, 1456.00
2055, 1457.00
2056, 1458.00
2057, 1461.00
2058, 1459.00
2059, 1460.00
2060, 1460.00
2061, 1461.00
2062, 1462.00
2063, 1463.00
2064, 1463.00
2065, 1465.00
2066, 1463.00
2067, 1465.00
2068, 1467.00
2069, 1466.00
2070, 1467.00
2071, 1468.00
2072, 1468.00
2073, 1469.00
2074, 1469.00
2075, 1471.00
2076, 1471.00
2077, 1470.00
2078, 1471.00
2079, 1473.00
2080, 1472.00
2081, 1474.00
2082, 1473.00
2083, 1473.00
2084, 1474.00
2085, 1475.00
2086, 1475.00
2087, 1476.00
2088, 1475.00
2089, 1477.00
2090, 1477.00
2091, 1478.00
2092, 1477.00
2093, 1477.00
2094, 1480.00
2095, 1479.00
2096, 1480.00
2097, 1480.00
2098, 1482.00
2099, 1481.00
2100, 1482.00
2101, 1480.00
2102, 1483.00
2103, 1483.00
2104, 1483.00
2105, 1483.00
2106, 1484.00
2107, 1484.00
2108, 1484.00
2109, 1484.00
2110, 1485.00
2111, 1485.00
2112, 1486.00
2113, 1486.00
2114, 1486.00
2115, 1485.00
2116, 1485.00
2117, 1487.00
2118, 1487.00
2119, 1488.00
2120, 1487.00
2121, 1489.00
2122, 1487.00
2123, 1490.00
2124, 1490.00
2125, 1489.00
2126, 1489.00
2127, 1489.00
2128, 1488.00
2129, 1491.00
2130, 1492.00
2131, 1491.00
2132, 1492.00
2133, 1490.00
2134, 1491.00
2135, 1490.00
2136, 1493.00
2137, 1492.00
2138, 1493.00
2139, 1493.00
2140, 1492.00
2141, 1495.00
2142, 1494.00
2143, 1493.00
2144, 1492.00
2145, 1495.00
2146, 1493.00
2147, 1495.00
2148, 1494.00
2149, 1495.00
2150, 1494.00
