FW version: 24
Log Version: 3.0.3

General Info:
       Command/Macro Performed,            Timestamp,             Device ID, COM Port, UART/I2C, Test Name, Host Major, Host Minor, Host Revision, Host Git Commit
            Single_measurement,  2023_07_18_11_26_26,       Insight2_F4_xxx,    USB-C,      USB,          ,          0,          1,             1,      4031237645

Show Spectrometer Status:
l0_version, f4_version, battery_perc, battery_mVolt, accelerometer_temp, accelerometer_x, accelerometer_y, accelerometer_z, compass_temp, compass_x, compass_y, compass_z, lamp_0, lamp_1, gain_0, gain_1
        17,         24,           78,          2007,               6544,           65196,            1564,           18900,            0,     65469,     65279,     18933,   2457,   2457,      1,      1

Temperature Statistic Info:
NTC AVG [°C], NTC2 AVG [°C]
      40.292,        39.966

Statistic Info:
M1:  num,      min,      max,   median,      AVG,      STD,M2:  num,      min,      max,   median,      AVG,      STD
     301,   922.00,  1047.00,   952.00,   964.04,  38.7923,     401,  1393.00,  1465.00,  1430.00,  1429.70,  24.6166,

Measurements:
Wavelength, Data Amplitude
1350, 934.00
1351, 935.00
1352, 934.00
1353, 935.00
1354, 933.00
1355, 933.00
1356, 934.00
1357, 934.00
1358, 934.00
1359, 934.00
1360, 933.00
1361, 932.00
1362, 933.00
1363, 933.00
1364, 932.00
1365, 931.00
1366, 931.00
1367, 931.00
1368, 930.00
1369, 930.00
1370, 929.00
1371, 929.00
1372, 928.00
1373, 928.00
1374, 928.00
1375, 928.00
1376, 928.00
1377, 926.00
1378, 926.00
1379, 927.00
1380, 926.00
1381, 926.00
1382, 926.00
1383, 925.00
1384, 925.00
1385, 925.00
1386, 925.00
1387, 924.00
1388, 925.00
1389, 924.00
1390, 924.00
1391, 924.00
1392, 924.00
1393, 924.00
1394, 925.00
1395, 923.00
1396, 923.00
1397, 924.00
1398, 924.00
1399, 923.00
1400, 923.00
1401, 923.00
1402, 924.00
1403, 923.00
1404, 923.00
1405, 923.00
1406, 923.00
1407, 923.00
1408, 924.00
1409, 924.00
1410, 924.00
1411, 923.00
1412, 923.00
1413, 922.00
1414, 923.00
1415, 923.00
1416, 924.00
1417, 924.00
1418, 923.00
1419, 923.00
1420, 923.00
1421, 924.00
1422, 924.00
1423, 923.00
1424, 924.00
1425, 924.00
1426, 925.00
1427, 924.00
1428, 925.00
1429, 925.00
1430, 925.00
1431, 925.00
1432, 925.00
1433, 925.00
1434, 926.00
1435, 926.00
1436, 926.00
1437, 925.00
1438, 927.00
1439, 926.00
1440, 926.00
1441, 927.00
1442, 927.00
1443, 927.00
1444, 928.00
1445, 928.00
1446, 928.00
1447, 929.00
1448, 929.00
1449, 929.00
1450, 930.00
1451, 930.00
1452, 930.00
1453, 932.00
1454, 931.00
1455, 931.00
1456, 931.00
1457, 932.00
1458, 932.00
1459, 932.00
1460, 933.00
1461, 933.00
1462, 934.00
1463, 934.00
1464, 934.00
1465, 935.00
1466, 935.00
1467, 936.00
1468, 935.00
1469, 937.00
1470, 937.00
1471, 937.00
1472, 937.00
1473, 938.00
1474, 938.00
1475, 940.00
1476, 940.00
1477, 940.00
1478, 941.00
1479, 941.00
1480, 941.00
1481, 943.00
1482, 943.00
1483, 944.00
1484, 944.00
1485, 943.00
1486, 944.00
1487, 944.00
1488, 945.00
1489, 945.00
1490, 946.00
1491, 948.00
1492, 948.00
1493, 948.00
1494, 948.00
1495, 950.00
1496, 949.00
1497, 950.00
1498, 952.00
1499, 951.00
1500, 952.00
1501, 952.00
1502, 953.00
1503, 953.00
1504, 954.00
1505, 954.00
1506, 955.00
1507, 955.00
1508, 956.00
1509, 957.00
1510, 957.00
1511, 958.00
1512, 958.00
1513, 959.00
1514, 959.00
1515, 960.00
1516, 961.00
1517, 961.00
1518, 962.00
1519, 962.00
1520, 963.00
1521, 964.00
1522, 964.00
1523, 966.00
1524, 965.00
1525, 966.00
1526, 967.00
1527, 966.00
1528, 968.00
1529, 969.00
1530, 969.00
1531, 970.00
1532, 971.00
1533, 971.00
1534, 971.00
1535, 972.00
1536, 973.00
1537, 973.00
1538, 974.00
1539, 975.00
1540, 975.00
1541, 975.00
1542, 976.00
1543, 976.00
1544, 978.00
1545, 978.00
1546, 978.00
1547, 979.00
1548, 980.00
1549, 980.00
1550, 981.00
1551, 982.00
1552, 982.00
1553, 983.00
1554, 984.00
1555, 984.00
1556, 985.00
1557, 985.00
1558, 986.00
1559, 987.00
1560, 988.00
1561, 987.00
1562, 987.00
1563, 988.00
1564, 989.00
1565, 989.00
1566, 990.00
1567, 991.00
1568, 992.00
1569, 992.00
1570, 994.00
1571, 993.00
1572, 995.00
1573, 995.00
1574, 996.00
1575, 996.00
1576, 997.00
1577, 998.00
1578, 997.00
1579, 999.00
1580, 998.00
1581, 999.00
1582, 1000.00
1583, 1001.00
1584, 1002.00
1585, 1002.00
1586, 1002.00
1587, 1003.00
1588, 1004.00
1589, 1004.00
1590, 1005.00
1591, 1005.00
1592, 1004.00
1593, 1007.00
1594, 1007.00
1595, 1009.00
1596, 1008.00
1597, 1008.00
1598, 1009.00
1599, 1009.00
1600, 1011.00
1601, 1010.00
1602, 1012.00
1603, 1013.00
1604, 1013.00
1605, 1014.00
1606, 1014.00
1607, 1015.00
1608, 1015.00
1609, 1017.00
1610, 1017.00
1611, 1017.00
1612, 1019.00
1613, 1020.00
1614, 1020.00
1615, 1021.00
1616, 1022.00
1617, 1024.00
1618, 1024.00
1619, 1025.00
1620, 1025.00
1621, 1027.00
1622, 1027.00
1623, 1029.00
1624, 1029.00
1625, 1030.00
1626, 1030.00
1627, 1030.00
1628, 1031.00
1629, 1032.00
1630, 1033.00
1631, 1034.00
1632, 1035.00
1633, 1036.00
1634, 1035.00
1635, 1036.00
1636, 1038.00
1637, 1038.00
1638, 1038.00
1639, 1040.00
1640, 1040.00
1641, 1041.00
1642, 1042.00
1643, 1042.00
1644, 1043.00
1645, 1043.00
1646, 1044.00
1647, 1045.00
1648, 1045.00
1649, 1046.00
1650, 1047.00

1750, 1461.00
1751, 1463.00
1752, 1463.00
1753, 1463.00
1754, 1461.00
1755, 1464.00
1756, 1462.00
1757, 1462.00
1758, 1464.00
1759, 1463.00
1760, 1465.00
1761, 1463.00
1762, 1463.00
1763, 1463.00
1764, 1465.00
1765, 1462.00
1766, 1463.00
1767, 1461.00
1768, 1463.00
1769, 1463.00
1770, 1463.00
1771, 1461.00
1772, 1463.00
1773, 1462.00
1774, 1463.00
1775, 1461.00
1776, 1461.00
1777, 1461.00
1778, 1460.00
1779, 1459.00
1780, 1462.00
1781, 1460.00
1782, 1460.00
1783, 1458.00
1784, 1461.00
1785, 1459.00
1786, 1460.00
1787, 1459.00
1788, 1459.00
1789, 1457.00
1790, 1457.00
1791, 1457.00
1792, 1459.00
1793, 1457.00
1794, 1457.00
1795, 1454.00
1796, 1456.00
1797, 1454.00
1798, 1456.00
1799, 1457.00
1800, 1455.00
1801, 1455.00
1802, 1456.00
1803, 1456.00
1804, 1455.00
1805, 1454.00
1806, 1455.00
1807, 1454.00
1808, 1454.00
1809, 1455.00
1810, 1454.00
1811, 1454.00
1812, 1453.00
1813, 1453.00
1814, 1453.00
1815, 1452.00
1816, 1453.00
1817, 1453.00
1818, 1452.00
1819, 1453.00
1820, 1451.00
1821, 1450.00
1822, 1450.00
1823, 1450.00
1824, 1451.00
1825, 1448.00
1826, 1449.00
1827, 1451.00
1828, 1447.00
1829, 1449.00
1830, 1445.00
1831, 1447.00
1832, 1446.00
1833, 1446.00
1834, 1445.00
1835, 1442.00
1836, 1443.00
1837, 1441.00
1838, 1441.00
1839, 1440.00
1840, 1440.00
1841, 1438.00
1842, 1435.00
1843, 1436.00
1844, 1436.00
1845, 1435.00
1846, 1435.00
1847, 1432.00
1848, 1432.00
1849, 1427.00
1850, 1429.00
1851, 1429.00
1852, 1428.00
1853, 1426.00
1854, 1425.00
1855, 1423.00
1856, 1424.00
1857, 1421.00
1858, 1419.00
1859, 1420.00
1860, 1418.00
1861, 1416.00
1862, 1415.00
1863, 1415.00
1864, 1414.00
1865, 1411.00
1866, 1413.00
1867, 1411.00
1868, 1410.00
1869, 1408.00
1870, 1409.00
1871, 1408.00
1872, 1406.00
1873, 1404.00
1874, 1406.00
1875, 1405.00
1876, 1405.00
1877, 1405.00
1878, 1404.00
1879, 1404.00
1880, 1402.00
1881, 1403.00
1882, 1401.00
1883, 1399.00
1884, 1402.00
1885, 1400.00
1886, 1399.00
1887, 1400.00
1888, 1398.00
1889, 1399.00
1890, 1398.00
1891, 1397.00
1892, 1399.00
1893, 1398.00
1894, 1396.00
1895, 1397.00
1896, 1397.00
1897, 1398.00
1898, 1398.00
1899, 1397.00
1900, 1397.00
1901, 1397.00
1902, 1395.00
1903, 1395.00
1904, 1399.00
1905, 1394.00
1906, 1395.00
1907, 1396.00
1908, 1395.00
1909, 1395.00
1910, 1395.00
1911, 1395.00
1912, 1393.00
1913, 1395.00
1914, 1396.00
1915, 1394.00
1916, 1394.00
1917, 1395.00
1918, 1393.00
1919, 1394.00
1920, 1395.00
1921, 1393.00
1922, 1394.00
1923, 1394.00
1924, 1394.00
1925, 1393.00
1926, 1395.00
1927, 1393.00
1928, 1394.00
1929, 1394.00
1930, 1393.00
1931, 1395.00
1932, 1394.00
1933, 1393.00
1934, 1397.00
1935, 1395.00
1936, 1393.00
1937, 1394.00
1938, 1394.00
1939, 1395.00
1940, 1395.00
1941, 1394.00
1942, 1396.00
1943, 1396.00
1944, 1394.00
1945, 1396.00
1946, 1396.00
1947, 1396.00
1948, 1396.00
1949, 1397.00
1950, 1397.00
1951, 1397.00
1952, 1397.00
1953, 1398.00
1954, 1398.00
1955, 1399.00
1956, 1398.00
1957, 1398.00
1958, 1400.00
1959, 1401.00
1960, 1401.00
1961, 1400.00
1962, 1401.00
1963, 1401.00
1964, 1402.00
1965, 1401.00
1966, 1402.00
1967, 1401.00
1968, 1402.00
1969, 1403.00
1970, 1403.00
1971, 1405.00
1972, 1404.00
1973, 1404.00
1974, 1406.00
1975, 1404.00
1976, 1404.00
1977, 1406.00
1978, 1407.00
1979, 1407.00
1980, 1407.00
1981, 1408.00
1982, 1407.00
1983, 1407.00
1984, 1406.00
1985, 1408.00
1986, 1407.00
1987, 1408.00
1988, 1411.00
1989, 1410.00
1990, 1411.00
1991, 1410.00
1992, 1411.00
1993, 1411.00
1994, 1411.00
1995, 1411.00
1996, 1413.00
1997, 1412.00
1998, 1413.00
1999, 1413.00
2000, 1414.00
2001, 1413.00
2002, 1412.00
2003, 1414.00
2004, 1414.00
2005, 1414.00
2006, 1414.00
2007, 1416.00
2008, 1416.00
2009, 1415.00
2010, 1416.00
2011, 1417.00
2012, 1417.00
2013, 1418.00
2014, 1415.00
2015, 1419.00
2016, 1419.00
2017, 1418.00
2018, 1420.00
2019, 1419.00
2020, 1421.00
2021, 1420.00
2022, 1420.00
2023, 1422.00
2024, 1421.00
2025, 1421.00
2026, 1420.00
2027, 1421.00
2028, 1424.00
2029, 1421.00
2030, 1425.00
2031, 1422.00
2032, 1424.00
2033, 1422.00
2034, 1424.00
2035, 1426.00
2036, 1425.00
2037, 1425.00
2038, 1426.00
2039, 1426.00
2040, 1427.00
2041, 1427.00
2042, 1427.00
2043, 1427.00
2044, 1429.00
2045, 1429.00
2046, 1428.00
2047, 1430.00
2048, 1430.00
2049, 1431.00
2050, 1429.00
2051, 1432.00
2052, 1432.00
2053, 1432.00
2054, 1433.00
2055, 1434.00
2056, 1435.00
2057, 1435.00
2058, 1435.00
2059, 1435.00
2060, 1436.00
2061, 1437.00
2062, 1437.00
2063, 1436.00
2064, 1440.00
2065, 1440.00
2066, 1438.00
2067, 1441.00
2068, 1441.00
2069, 1442.00
2070, 1442.00
2071, 1443.00
2072, 1443.00
2073, 1442.00
2074, 1443.00
2075, 1445.00
2076, 1444.00
2077, 1445.00
2078, 1447.00
2079, 1447.00
2080, 1446.00
2081, 1446.00
2082, 1445.00
2083, 1447.00
2084, 1448.00
2085, 1449.00
2086, 1447.00
2087, 1450.00
2088, 1448.00
2089, 1450.00
2090, 1451.00
2091, 1451.00
2092, 1450.00
2093, 1451.00
2094, 1452.00
2095, 1452.00
2096, 1452.00
2097, 1451.00
2098, 1452.00
2099, 1453.00
2100, 1453.00
2101, 1453.00
2102, 1455.00
2103, 1452.00
2104, 1455.00
2105, 1452.00
2106, 1453.00
2107, 1454.00
2108, 1453.00
2109, 1455.00
2110, 1455.00
2111, 1455.00
2112, 1456.00
2113, 1455.00
2114, 1455.00
2115, 1455.00
2116, 1455.00
2117, 1457.00
2118, 1457.00
2119, 1456.00
2120, 1458.00
2121, 1458.00
2122, 1456.00
2123, 1457.00
2124, 1457.00
2125, 1458.00
2126, 1459.00
2127, 1457.00
2128, 1457.00
2129, 1455.00
2130, 1457.00
2131, 1458.00
2132, 1460.00
2133, 1458.00
2134, 1460.00
2135, 1457.00
2136, 1459.00
2137, 1459.00
2138, 1460.00
2139, 1459.00
2140, 1461.00
2141, 1459.00
2142, 1460.00
2143, 1461.00
2144, 1459.00
2145, 1462.00
2146, 1461.00
2147, 1460.00
2148, 1459.00
2149, 1463.00
2150, 1462.00
