FW version: 24
Log Version: 3.0.3

General Info:
       Command/Macro Performed,            Timestamp,             Device ID, COM Port, UART/I2C, Test Name, Host Major, Host Minor, Host Revision, Host Git Commit
            Single_measurement,  2023_07_04_10_47_43,       Insight2_F4_xxx,    USB-C,      USB,          ,          0,          1,             1,      4031237645

Show Spectrometer Status:
l0_version, f4_version, battery_perc, battery_mVolt, accelerometer_temp, accelerometer_x, accelerometer_y, accelerometer_z, compass_temp, compass_x, compass_y, compass_z, lamp_0, lamp_1, gain_0, gain_1
        17,         24,            3,          1791,               5072,           64744,            1548,           18968,            0,     65515,     65421,     19069,   2457,   2457,      1,      1

Temperature Statistic Info:
NTC AVG [°C], NTC2 AVG [°C]
      34.510,        34.170

Statistic Info:
M1:  num,      min,      max,   median,      AVG,      STD,M2:  num,      min,      max,   median,      AVG,      STD
     301,   949.00,  1100.00,   981.00,   998.28,  46.6116,     401,  1348.00,  1435.00,  1384.00,  1386.98,  28.7202,

Measurements:
Wavelength, Data Amplitude
1350, 974.00
1351, 975.00
1352, 973.00
1353, 973.00
1354, 973.00
1355, 972.00
1356, 972.00
1357, 971.00
1358, 970.00
1359, 969.00
1360, 970.00
1361, 970.00
1362, 968.00
1363, 968.00
1364, 967.00
1365, 967.00
1366, 966.00
1367, 965.00
1368, 965.00
1369, 963.00
1370, 964.00
1371, 963.00
1372, 962.00
1373, 960.00
1374, 961.00
1375, 960.00
1376, 960.00
1377, 959.00
1378, 957.00
1379, 958.00
1380, 957.00
1381, 957.00
1382, 956.00
1383, 955.00
1384, 956.00
1385, 955.00
1386, 954.00
1387, 954.00
1388, 953.00
1389, 953.00
1390, 953.00
1391, 953.00
1392, 953.00
1393, 952.00
1394, 953.00
1395, 951.00
1396, 952.00
1397, 951.00
1398, 951.00
1399, 951.00
1400, 951.00
1401, 952.00
1402, 951.00
1403, 949.00
1404, 949.00
1405, 949.00
1406, 950.00
1407, 950.00
1408, 949.00
1409, 950.00
1410, 950.00
1411, 949.00
1412, 950.00
1413, 950.00
1414, 949.00
1415, 950.00
1416, 949.00
1417, 949.00
1418, 949.00
1419, 949.00
1420, 950.00
1421, 950.00
1422, 949.00
1423, 949.00
1424, 950.00
1425, 950.00
1426, 950.00
1427, 949.00
1428, 950.00
1429, 951.00
1430, 950.00
1431, 951.00
1432, 951.00
1433, 951.00
1434, 952.00
1435, 950.00
1436, 951.00
1437, 951.00
1438, 951.00
1439, 952.00
1440, 952.00
1441, 951.00
1442, 952.00
1443, 953.00
1444, 953.00
1445, 953.00
1446, 954.00
1447, 954.00
1448, 953.00
1449, 954.00
1450, 955.00
1451, 955.00
1452, 955.00
1453, 955.00
1454, 956.00
1455, 957.00
1456, 957.00
1457, 956.00
1458, 958.00
1459, 957.00
1460, 958.00
1461, 959.00
1462, 959.00
1463, 959.00
1464, 959.00
1465, 961.00
1466, 961.00
1467, 961.00
1468, 961.00
1469, 962.00
1470, 962.00
1471, 963.00
1472, 963.00
1473, 963.00
1474, 965.00
1475, 965.00
1476, 966.00
1477, 965.00
1478, 967.00
1479, 966.00
1480, 969.00
1481, 968.00
1482, 969.00
1483, 970.00
1484, 971.00
1485, 971.00
1486, 972.00
1487, 972.00
1488, 972.00
1489, 974.00
1490, 973.00
1491, 975.00
1492, 976.00
1493, 976.00
1494, 977.00
1495, 977.00
1496, 978.00
1497, 979.00
1498, 979.00
1499, 979.00
1500, 981.00
1501, 981.00
1502, 981.00
1503, 983.00
1504, 982.00
1505, 983.00
1506, 984.00
1507, 985.00
1508, 985.00
1509, 986.00
1510, 987.00
1511, 987.00
1512, 988.00
1513, 989.00
1514, 989.00
1515, 991.00
1516, 991.00
1517, 991.00
1518, 992.00
1519, 993.00
1520, 994.00
1521, 996.00
1522, 995.00
1523, 996.00
1524, 997.00
1525, 998.00
1526, 998.00
1527, 999.00
1528, 1000.00
1529, 1001.00
1530, 1002.00
1531, 1002.00
1532, 1003.00
1533, 1004.00
1534, 1004.00
1535, 1005.00
1536, 1005.00
1537, 1007.00
1538, 1009.00
1539, 1008.00
1540, 1009.00
1541, 1010.00
1542, 1010.00
1543, 1010.00
1544, 1012.00
1545, 1013.00
1546, 1014.00
1547, 1015.00
1548, 1015.00
1549, 1015.00
1550, 1016.00
1551, 1018.00
1552, 1017.00
1553, 1018.00
1554, 1019.00
1555, 1020.00
1556, 1020.00
1557, 1021.00
1558, 1024.00
1559, 1023.00
1560, 1024.00
1561, 1025.00
1562, 1026.00
1563, 1027.00
1564, 1026.00
1565, 1027.00
1566, 1028.00
1567, 1029.00
1568, 1030.00
1569, 1031.00
1570, 1032.00
1571, 1033.00
1572, 1035.00
1573, 1035.00
1574, 1035.00
1575, 1037.00
1576, 1038.00
1577, 1038.00
1578, 1039.00
1579, 1039.00
1580, 1040.00
1581, 1041.00
1582, 1042.00
1583, 1042.00
1584, 1044.00
1585, 1044.00
1586, 1045.00
1587, 1044.00
1588, 1046.00
1589, 1047.00
1590, 1047.00
1591, 1048.00
1592, 1049.00
1593, 1049.00
1594, 1050.00
1595, 1052.00
1596, 1051.00
1597, 1052.00
1598, 1054.00
1599, 1054.00
1600, 1054.00
1601, 1056.00
1602, 1056.00
1603, 1057.00
1604, 1058.00
1605, 1060.00
1606, 1060.00
1607, 1060.00
1608, 1062.00
1609, 1064.00
1610, 1064.00
1611, 1064.00
1612, 1066.00
1613, 1067.00
1614, 1067.00
1615, 1069.00
1616, 1069.00
1617, 1071.00
1618, 1071.00
1619, 1072.00
1620, 1073.00
1621, 1074.00
1622, 1076.00
1623, 1076.00
1624, 1077.00
1625, 1078.00
1626, 1079.00
1627, 1080.00
1628, 1081.00
1629, 1081.00
1630, 1083.00
1631, 1083.00
1632, 1085.00
1633, 1085.00
1634, 1088.00
1635, 1087.00
1636, 1088.00
1637, 1089.00
1638, 1089.00
1639, 1090.00
1640, 1091.00
1641, 1092.00
1642, 1092.00
1643, 1093.00
1644, 1094.00
1645, 1095.00
1646, 1096.00
1647, 1098.00
1648, 1098.00
1649, 1098.00
1650, 1100.00

1750, 1434.00
1751, 1434.00
1752, 1435.00
1753, 1435.00
1754, 1434.00
1755, 1433.00
1756, 1434.00
1757, 1434.00
1758, 1435.00
1759, 1435.00
1760, 1434.00
1761, 1435.00
1762, 1433.00
1763, 1434.00
1764, 1434.00
1765, 1434.00
1766, 1433.00
1767, 1434.00
1768, 1435.00
1769, 1435.00
1770, 1435.00
1771, 1433.00
1772, 1431.00
1773, 1432.00
1774, 1431.00
1775, 1431.00
1776, 1430.00
1777, 1432.00
1778, 1431.00
1779, 1433.00
1780, 1431.00
1781, 1431.00
1782, 1431.00
1783, 1431.00
1784, 1430.00
1785, 1430.00
1786, 1429.00
1787, 1430.00
1788, 1430.00
1789, 1430.00
1790, 1428.00
1791, 1427.00
1792, 1428.00
1793, 1427.00
1794, 1427.00
1795, 1427.00
1796, 1424.00
1797, 1428.00
1798, 1428.00
1799, 1426.00
1800, 1426.00
1801, 1426.00
1802, 1427.00
1803, 1424.00
1804, 1425.00
1805, 1425.00
1806, 1424.00
1807, 1426.00
1808, 1423.00
1809, 1421.00
1810, 1422.00
1811, 1423.00
1812, 1421.00
1813, 1423.00
1814, 1422.00
1815, 1420.00
1816, 1421.00
1817, 1421.00
1818, 1421.00
1819, 1419.00
1820, 1419.00
1821, 1419.00
1822, 1417.00
1823, 1418.00
1824, 1415.00
1825, 1416.00
1826, 1417.00
1827, 1415.00
1828, 1414.00
1829, 1414.00
1830, 1413.00
1831, 1411.00
1832, 1410.00
1833, 1410.00
1834, 1410.00
1835, 1409.00
1836, 1408.00
1837, 1408.00
1838, 1404.00
1839, 1405.00
1840, 1403.00
1841, 1401.00
1842, 1402.00
1843, 1401.00
1844, 1398.00
1845, 1396.00
1846, 1394.00
1847, 1394.00
1848, 1393.00
1849, 1390.00
1850, 1389.00
1851, 1390.00
1852, 1386.00
1853, 1385.00
1854, 1386.00
1855, 1384.00
1856, 1381.00
1857, 1381.00
1858, 1379.00
1859, 1378.00
1860, 1377.00
1861, 1374.00
1862, 1374.00
1863, 1374.00
1864, 1370.00
1865, 1369.00
1866, 1369.00
1867, 1368.00
1868, 1367.00
1869, 1367.00
1870, 1366.00
1871, 1366.00
1872, 1365.00
1873, 1363.00
1874, 1361.00
1875, 1361.00
1876, 1360.00
1877, 1360.00
1878, 1360.00
1879, 1357.00
1880, 1359.00
1881, 1359.00
1882, 1357.00
1883, 1359.00
1884, 1357.00
1885, 1357.00
1886, 1355.00
1887, 1356.00
1888, 1354.00
1889, 1354.00
1890, 1355.00
1891, 1354.00
1892, 1355.00
1893, 1354.00
1894, 1353.00
1895, 1353.00
1896, 1354.00
1897, 1353.00
1898, 1352.00
1899, 1351.00
1900, 1354.00
1901, 1351.00
1902, 1351.00
1903, 1351.00
1904, 1352.00
1905, 1350.00
1906, 1351.00
1907, 1350.00
1908, 1350.00
1909, 1351.00
1910, 1352.00
1911, 1350.00
1912, 1351.00
1913, 1352.00
1914, 1350.00
1915, 1350.00
1916, 1349.00
1917, 1350.00
1918, 1349.00
1919, 1350.00
1920, 1350.00
1921, 1349.00
1922, 1349.00
1923, 1350.00
1924, 1349.00
1925, 1350.00
1926, 1348.00
1927, 1349.00
1928, 1349.00
1929, 1350.00
1930, 1349.00
1931, 1349.00
1932, 1350.00
1933, 1349.00
1934, 1351.00
1935, 1350.00
1936, 1349.00
1937, 1349.00
1938, 1349.00
1939, 1349.00
1940, 1351.00
1941, 1351.00
1942, 1349.00
1943, 1349.00
1944, 1351.00
1945, 1351.00
1946, 1349.00
1947, 1352.00
1948, 1350.00
1949, 1351.00
1950, 1351.00
1951, 1352.00
1952, 1352.00
1953, 1351.00
1954, 1354.00
1955, 1353.00
1956, 1352.00
1957, 1352.00
1958, 1354.00
1959, 1353.00
1960, 1354.00
1961, 1353.00
1962, 1352.00
1963, 1354.00
1964, 1353.00
1965, 1354.00
1966, 1354.00
1967, 1355.00
1968, 1357.00
1969, 1356.00
1970, 1356.00
1971, 1355.00
1972, 1355.00
1973, 1357.00
1974, 1356.00
1975, 1357.00
1976, 1356.00
1977, 1358.00
1978, 1358.00
1979, 1359.00
1980, 1358.00
1981, 1358.00
1982, 1359.00
1983, 1359.00
1984, 1360.00
1985, 1361.00
1986, 1361.00
1987, 1360.00
1988, 1361.00
1989, 1361.00
1990, 1361.00
1991, 1361.00
1992, 1362.00
1993, 1365.00
1994, 1364.00
1995, 1363.00
1996, 1363.00
1997, 1363.00
1998, 1365.00
1999, 1364.00
2000, 1365.00
2001, 1363.00
2002, 1366.00
2003, 1365.00
2004, 1366.00
2005, 1367.00
2006, 1367.00
2007, 1367.00
2008, 1366.00
2009, 1369.00
2010, 1365.00
2011, 1367.00
2012, 1368.00
2013, 1368.00
2014, 1367.00
2015, 1369.00
2016, 1370.00
2017, 1370.00
2018, 1369.00
2019, 1371.00
2020, 1370.00
2021, 1371.00
2022, 1371.00
2023, 1371.00
2024, 1372.00
2025, 1374.00
2026, 1372.00
2027, 1375.00
2028, 1371.00
2029, 1373.00
2030, 1375.00
2031, 1375.00
2032, 1375.00
2033, 1374.00
2034, 1375.00
2035, 1376.00
2036, 1377.00
2037, 1377.00
2038, 1377.00
2039, 1378.00
2040, 1378.00
2041, 1378.00
2042, 1378.00
2043, 1377.00
2044, 1378.00
2045, 1379.00
2046, 1381.00
2047, 1379.00
2048, 1381.00
2049, 1382.00
2050, 1383.00
2051, 1383.00
2052, 1381.00
2053, 1384.00
2054, 1383.00
2055, 1384.00
2056, 1385.00
2057, 1387.00
2058, 1386.00
2059, 1387.00
2060, 1387.00
2061, 1387.00
2062, 1389.00
2063, 1391.00
2064, 1389.00
2065, 1390.00
2066, 1389.00
2067, 1391.00
2068, 1392.00
2069, 1391.00
2070, 1394.00
2071, 1394.00
2072, 1393.00
2073, 1394.00
2074, 1395.00
2075, 1395.00
2076, 1395.00
2077, 1397.00
2078, 1397.00
2079, 1397.00
2080, 1398.00
2081, 1398.00
2082, 1399.00
2083, 1399.00
2084, 1399.00
2085, 1399.00
2086, 1399.00
2087, 1401.00
2088, 1400.00
2089, 1402.00
2090, 1402.00
2091, 1402.00
2092, 1403.00
2093, 1403.00
2094, 1402.00
2095, 1404.00
2096, 1404.00
2097, 1405.00
2098, 1404.00
2099, 1404.00
2100, 1404.00
2101, 1407.00
2102, 1406.00
2103, 1406.00
2104, 1407.00
2105, 1406.00
2106, 1407.00
2107, 1407.00
2108, 1408.00
2109, 1409.00
2110, 1408.00
2111, 1408.00
2112, 1409.00
2113, 1407.00
2114, 1410.00
2115, 1409.00
2116, 1408.00
2117, 1409.00
2118, 1409.00
2119, 1410.00
2120, 1410.00
2121, 1410.00
2122, 1409.00
2123, 1410.00
2124, 1411.00
2125, 1411.00
2126, 1412.00
2127, 1412.00
2128, 1413.00
2129, 1412.00
2130, 1412.00
2131, 1413.00
2132, 1412.00
2133, 1412.00
2134, 1415.00
2135, 1413.00
2136, 1412.00
2137, 1415.00
2138, 1414.00
2139, 1413.00
2140, 1414.00
2141, 1413.00
2142, 1415.00
2143, 1413.00
2144, 1414.00
2145, 1414.00
2146, 1415.00
2147, 1415.00
2148, 1415.00
2149, 1416.00
2150, 1414.00
