FW version: 24
Log Version: 3.0.3

General Info:
       Command/Macro Performed,            Timestamp,             Device ID, COM Port, UART/I2C, Test Name, Host Major, Host Minor, Host Revision, Host Git Commit
            Single_measurement,  2023_06_29_11_57_39,       Insight2_F4_xxx,    USB-C,      USB,          ,          0,          1,             1,      4031237645

Show Spectrometer Status:
l0_version, f4_version, battery_perc, battery_mVolt, accelerometer_temp, accelerometer_x, accelerometer_y, accelerometer_z, compass_temp, compass_x, compass_y, compass_z, lamp_0, lamp_1, gain_0, gain_1
        17,         24,           95,          2078,               5856,              92,           65124,           18452,            0,     65404,     65399,     65535,   3276,   3276,      0,      0

Temperature Statistic Info:
NTC AVG [°C], NTC2 AVG [°C]
      37.783,        37.497

Statistic Info:
M1:  num,      min,      max,   median,      AVG,      STD,M2:  num,      min,      max,   median,      AVG,      STD
     301,   557.00,   628.00,   574.00,   580.79,  21.6977,     401,   778.00,   820.00,   799.00,   798.91,  13.9733,

Measurements:
Wavelength, Data Amplitude
1350, 566.00
1351, 566.00
1352, 566.00
1353, 566.00
1354, 566.00
1355, 566.00
1356, 566.00
1357, 565.00
1358, 565.00
1359, 565.00
1360, 565.00
1361, 564.00
1362, 564.00
1363, 564.00
1364, 564.00
1365, 564.00
1366, 563.00
1367, 564.00
1368, 563.00
1369, 563.00
1370, 563.00
1371, 562.00
1372, 562.00
1373, 562.00
1374, 562.00
1375, 561.00
1376, 562.00
1377, 561.00
1378, 561.00
1379, 561.00
1380, 560.00
1381, 560.00
1382, 560.00
1383, 560.00
1384, 560.00
1385, 560.00
1386, 559.00
1387, 559.00
1388, 559.00
1389, 559.00
1390, 560.00
1391, 559.00
1392, 559.00
1393, 559.00
1394, 559.00
1395, 558.00
1396, 559.00
1397, 558.00
1398, 558.00
1399, 559.00
1400, 558.00
1401, 559.00
1402, 558.00
1403, 559.00
1404, 558.00
1405, 558.00
1406, 558.00
1407, 558.00
1408, 558.00
1409, 558.00
1410, 558.00
1411, 558.00
1412, 558.00
1413, 558.00
1414, 558.00
1415, 558.00
1416, 558.00
1417, 558.00
1418, 558.00
1419, 558.00
1420, 558.00
1421, 557.00
1422, 558.00
1423, 558.00
1424, 557.00
1425, 558.00
1426, 558.00
1427, 558.00
1428, 558.00
1429, 558.00
1430, 558.00
1431, 559.00
1432, 558.00
1433, 559.00
1434, 559.00
1435, 559.00
1436, 559.00
1437, 559.00
1438, 559.00
1439, 559.00
1440, 560.00
1441, 560.00
1442, 560.00
1443, 560.00
1444, 560.00
1445, 561.00
1446, 560.00
1447, 561.00
1448, 561.00
1449, 561.00
1450, 561.00
1451, 561.00
1452, 562.00
1453, 562.00
1454, 562.00
1455, 562.00
1456, 562.00
1457, 562.00
1458, 562.00
1459, 563.00
1460, 563.00
1461, 564.00
1462, 563.00
1463, 564.00
1464, 564.00
1465, 564.00
1466, 564.00
1467, 565.00
1468, 565.00
1469, 565.00
1470, 565.00
1471, 566.00
1472, 566.00
1473, 566.00
1474, 566.00
1475, 566.00
1476, 567.00
1477, 567.00
1478, 567.00
1479, 567.00
1480, 567.00
1481, 568.00
1482, 568.00
1483, 568.00
1484, 569.00
1485, 569.00
1486, 570.00
1487, 570.00
1488, 570.00
1489, 570.00
1490, 570.00
1491, 571.00
1492, 571.00
1493, 571.00
1494, 572.00
1495, 573.00
1496, 573.00
1497, 573.00
1498, 573.00
1499, 573.00
1500, 574.00
1501, 574.00
1502, 574.00
1503, 574.00
1504, 575.00
1505, 575.00
1506, 575.00
1507, 576.00
1508, 576.00
1509, 576.00
1510, 576.00
1511, 577.00
1512, 577.00
1513, 577.00
1514, 578.00
1515, 578.00
1516, 579.00
1517, 578.00
1518, 579.00
1519, 579.00
1520, 580.00
1521, 580.00
1522, 580.00
1523, 580.00
1524, 581.00
1525, 582.00
1526, 581.00
1527, 581.00
1528, 582.00
1529, 582.00
1530, 583.00
1531, 583.00
1532, 584.00
1533, 584.00
1534, 585.00
1535, 585.00
1536, 585.00
1537, 585.00
1538, 586.00
1539, 586.00
1540, 586.00
1541, 586.00
1542, 587.00
1543, 587.00
1544, 588.00
1545, 588.00
1546, 588.00
1547, 589.00
1548, 588.00
1549, 589.00
1550, 590.00
1551, 590.00
1552, 590.00
1553, 591.00
1554, 591.00
1555, 591.00
1556, 592.00
1557, 592.00
1558, 592.00
1559, 593.00
1560, 594.00
1561, 593.00
1562, 594.00
1563, 594.00
1564, 594.00
1565, 595.00
1566, 596.00
1567, 596.00
1568, 596.00
1569, 597.00
1570, 597.00
1571, 597.00
1572, 597.00
1573, 598.00
1574, 598.00
1575, 598.00
1576, 599.00
1577, 599.00
1578, 600.00
1579, 600.00
1580, 600.00
1581, 601.00
1582, 601.00
1583, 601.00
1584, 602.00
1585, 602.00
1586, 603.00
1587, 603.00
1588, 603.00
1589, 604.00
1590, 604.00
1591, 604.00
1592, 605.00
1593, 605.00
1594, 605.00
1595, 606.00
1596, 605.00
1597, 606.00
1598, 606.00
1599, 606.00
1600, 607.00
1601, 607.00
1602, 608.00
1603, 608.00
1604, 609.00
1605, 609.00
1606, 610.00
1607, 610.00
1608, 610.00
1609, 610.00
1610, 611.00
1611, 612.00
1612, 612.00
1613, 612.00
1614, 613.00
1615, 613.00
1616, 614.00
1617, 614.00
1618, 614.00
1619, 615.00
1620, 615.00
1621, 615.00
1622, 616.00
1623, 617.00
1624, 617.00
1625, 618.00
1626, 618.00
1627, 618.00
1628, 619.00
1629, 619.00
1630, 619.00
1631, 620.00
1632, 620.00
1633, 621.00
1634, 621.00
1635, 622.00
1636, 622.00
1637, 623.00
1638, 623.00
1639, 623.00
1640, 623.00
1641, 624.00
1642, 625.00
1643, 625.00
1644, 625.00
1645, 626.00
1646, 626.00
1647, 626.00
1648, 626.00
1649, 627.00
1650, 628.00

1750, 820.00
1751, 820.00
1752, 819.00
1753, 820.00
1754, 820.00
1755, 820.00
1756, 820.00
1757, 820.00
1758, 819.00
1759, 819.00
1760, 820.00
1761, 819.00
1762, 820.00
1763, 820.00
1764, 820.00
1765, 819.00
1766, 819.00
1767, 819.00
1768, 819.00
1769, 819.00
1770, 819.00
1771, 819.00
1772, 818.00
1773, 818.00
1774, 818.00
1775, 818.00
1776, 819.00
1777, 818.00
1778, 818.00
1779, 818.00
1780, 817.00
1781, 817.00
1782, 818.00
1783, 817.00
1784, 817.00
1785, 817.00
1786, 816.00
1787, 817.00
1788, 817.00
1789, 817.00
1790, 816.00
1791, 815.00
1792, 816.00
1793, 816.00
1794, 815.00
1795, 815.00
1796, 816.00
1797, 815.00
1798, 815.00
1799, 815.00
1800, 815.00
1801, 814.00
1802, 815.00
1803, 815.00
1804, 815.00
1805, 814.00
1806, 815.00
1807, 815.00
1808, 814.00
1809, 814.00
1810, 814.00
1811, 814.00
1812, 814.00
1813, 813.00
1814, 813.00
1815, 813.00
1816, 813.00
1817, 813.00
1818, 813.00
1819, 813.00
1820, 813.00
1821, 813.00
1822, 812.00
1823, 812.00
1824, 812.00
1825, 811.00
1826, 811.00
1827, 811.00
1828, 811.00
1829, 810.00
1830, 810.00
1831, 809.00
1832, 810.00
1833, 809.00
1834, 808.00
1835, 808.00
1836, 808.00
1837, 808.00
1838, 806.00
1839, 806.00
1840, 806.00
1841, 805.00
1842, 804.00
1843, 804.00
1844, 803.00
1845, 803.00
1846, 802.00
1847, 802.00
1848, 801.00
1849, 800.00
1850, 799.00
1851, 800.00
1852, 798.00
1853, 797.00
1854, 797.00
1855, 796.00
1856, 796.00
1857, 795.00
1858, 795.00
1859, 794.00
1860, 793.00
1861, 792.00
1862, 792.00
1863, 791.00
1864, 791.00
1865, 790.00
1866, 790.00
1867, 789.00
1868, 789.00
1869, 788.00
1870, 788.00
1871, 787.00
1872, 787.00
1873, 786.00
1874, 786.00
1875, 785.00
1876, 785.00
1877, 785.00
1878, 784.00
1879, 784.00
1880, 783.00
1881, 784.00
1882, 784.00
1883, 782.00
1884, 784.00
1885, 782.00
1886, 783.00
1887, 782.00
1888, 782.00
1889, 782.00
1890, 782.00
1891, 781.00
1892, 781.00
1893, 781.00
1894, 781.00
1895, 781.00
1896, 781.00
1897, 781.00
1898, 781.00
1899, 780.00
1900, 780.00
1901, 780.00
1902, 780.00
1903, 781.00
1904, 780.00
1905, 779.00
1906, 780.00
1907, 780.00
1908, 780.00
1909, 779.00
1910, 780.00
1911, 779.00
1912, 779.00
1913, 780.00
1914, 779.00
1915, 779.00
1916, 779.00
1917, 779.00
1918, 779.00
1919, 779.00
1920, 779.00
1921, 779.00
1922, 779.00
1923, 779.00
1924, 780.00
1925, 779.00
1926, 780.00
1927, 779.00
1928, 779.00
1929, 779.00
1930, 778.00
1931, 780.00
1932, 780.00
1933, 778.00
1934, 779.00
1935, 779.00
1936, 780.00
1937, 780.00
1938, 780.00
1939, 780.00
1940, 779.00
1941, 779.00
1942, 780.00
1943, 780.00
1944, 780.00
1945, 781.00
1946, 780.00
1947, 780.00
1948, 780.00
1949, 780.00
1950, 780.00
1951, 780.00
1952, 781.00
1953, 781.00
1954, 781.00
1955, 781.00
1956, 781.00
1957, 782.00
1958, 781.00
1959, 781.00
1960, 781.00
1961, 782.00
1962, 782.00
1963, 782.00
1964, 783.00
1965, 782.00
1966, 783.00
1967, 784.00
1968, 784.00
1969, 784.00
1970, 784.00
1971, 784.00
1972, 784.00
1973, 784.00
1974, 783.00
1975, 784.00
1976, 785.00
1977, 785.00
1978, 786.00
1979, 785.00
1980, 785.00
1981, 785.00
1982, 785.00
1983, 786.00
1984, 786.00
1985, 787.00
1986, 787.00
1987, 787.00
1988, 787.00
1989, 787.00
1990, 788.00
1991, 787.00
1992, 787.00
1993, 788.00
1994, 788.00
1995, 788.00
1996, 789.00
1997, 788.00
1998, 788.00
1999, 789.00
2000, 789.00
2001, 789.00
2002, 789.00
2003, 790.00
2004, 790.00
2005, 790.00
2006, 790.00
2007, 790.00
2008, 791.00
2009, 790.00
2010, 791.00
2011, 790.00
2012, 790.00
2013, 791.00
2014, 791.00
2015, 792.00
2016, 792.00
2017, 792.00
2018, 792.00
2019, 793.00
2020, 792.00
2021, 793.00
2022, 793.00
2023, 793.00
2024, 793.00
2025, 793.00
2026, 793.00
2027, 793.00
2028, 794.00
2029, 794.00
2030, 795.00
2031, 794.00
2032, 794.00
2033, 795.00
2034, 796.00
2035, 796.00
2036, 796.00
2037, 796.00
2038, 796.00
2039, 796.00
2040, 796.00
2041, 797.00
2042, 797.00
2043, 797.00
2044, 797.00
2045, 798.00
2046, 799.00
2047, 799.00
2048, 799.00
2049, 799.00
2050, 799.00
2051, 799.00
2052, 800.00
2053, 800.00
2054, 800.00
2055, 801.00
2056, 801.00
2057, 801.00
2058, 800.00
2059, 801.00
2060, 802.00
2061, 802.00
2062, 802.00
2063, 803.00
2064, 803.00
2065, 803.00
2066, 803.00
2067, 804.00
2068, 803.00
2069, 804.00
2070, 804.00
2071, 805.00
2072, 805.00
2073, 805.00
2074, 805.00
2075, 805.00
2076, 806.00
2077, 806.00
2078, 806.00
2079, 807.00
2080, 807.00
2081, 808.00
2082, 807.00
2083, 808.00
2084, 808.00
2085, 808.00
2086, 808.00
2087, 808.00
2088, 808.00
2089, 808.00
2090, 809.00
2091, 809.00
2092, 810.00
2093, 809.00
2094, 810.00
2095, 809.00
2096, 810.00
2097, 810.00
2098, 809.00
2099, 811.00
2100, 810.00
2101, 810.00
2102, 811.00
2103, 811.00
2104, 811.00
2105, 811.00
2106, 811.00
2107, 811.00
2108, 812.00
2109, 812.00
2110, 811.00
2111, 813.00
2112, 812.00
2113, 812.00
2114, 812.00
2115, 811.00
2116, 812.00
2117, 813.00
2118, 812.00
2119, 812.00
2120, 812.00
2121, 814.00
2122, 813.00
2123, 813.00
2124, 813.00
2125, 813.00
2126, 814.00
2127, 813.00
2128, 813.00
2129, 813.00
2130, 813.00
2131, 813.00
2132, 814.00
2133, 814.00
2134, 813.00
2135, 814.00
2136, 813.00
2137, 815.00
2138, 814.00
2139, 815.00
2140, 814.00
2141, 814.00
2142, 814.00
2143, 814.00
2144, 814.00
2145, 815.00
2146, 815.00
2147, 815.00
2148, 815.00
2149, 815.00
2150, 815.00
