FW version: 24
Log Version: 3.0.3

General Info:
       Command/Macro Performed,            Timestamp,             Device ID, COM Port, UART/I2C, Test Name, Host Major, Host Minor, Host Revision, Host Git Commit
            Single_measurement,  2023_06_29_11_58_14,       Insight2_F4_xxx,    USB-C,      USB,          ,          0,          1,             1,      4031237645

Show Spectrometer Status:
l0_version, f4_version, battery_perc, battery_mVolt, accelerometer_temp, accelerometer_x, accelerometer_y, accelerometer_z, compass_temp, compass_x, compass_y, compass_z, lamp_0, lamp_1, gain_0, gain_1
        17,         24,           95,          2077,               5872,             152,           65108,           18476,            0,     65471,     65398,     65534,   2457,   2457,      1,      1

Temperature Statistic Info:
NTC AVG [°C], NTC2 AVG [°C]
      37.954,        37.612

Statistic Info:
M1:  num,      min,      max,   median,      AVG,      STD,M2:  num,      min,      max,   median,      AVG,      STD
     301,   930.00,  1059.00,   961.00,   973.32,  39.4442,     401,  1400.00,  1476.00,  1440.00,  1439.31,  25.6066,

Measurements:
Wavelength, Data Amplitude
1350, 943.00
1351, 944.00
1352, 943.00
1353, 943.00
1354, 943.00
1355, 943.00
1356, 942.00
1357, 942.00
1358, 942.00
1359, 942.00
1360, 942.00
1361, 942.00
1362, 941.00
1363, 941.00
1364, 941.00
1365, 939.00
1366, 941.00
1367, 939.00
1368, 938.00
1369, 938.00
1370, 939.00
1371, 938.00
1372, 939.00
1373, 937.00
1374, 937.00
1375, 937.00
1376, 936.00
1377, 936.00
1378, 936.00
1379, 936.00
1380, 935.00
1381, 934.00
1382, 935.00
1383, 933.00
1384, 934.00
1385, 933.00
1386, 933.00
1387, 934.00
1388, 934.00
1389, 932.00
1390, 933.00
1391, 933.00
1392, 932.00
1393, 932.00
1394, 932.00
1395, 932.00
1396, 933.00
1397, 932.00
1398, 932.00
1399, 932.00
1400, 932.00
1401, 932.00
1402, 933.00
1403, 932.00
1404, 932.00
1405, 932.00
1406, 932.00
1407, 932.00
1408, 932.00
1409, 931.00
1410, 932.00
1411, 932.00
1412, 932.00
1413, 932.00
1414, 932.00
1415, 930.00
1416, 931.00
1417, 932.00
1418, 932.00
1419, 931.00
1420, 932.00
1421, 933.00
1422, 931.00
1423, 932.00
1424, 933.00
1425, 932.00
1426, 932.00
1427, 933.00
1428, 932.00
1429, 933.00
1430, 933.00
1431, 934.00
1432, 934.00
1433, 934.00
1434, 934.00
1435, 934.00
1436, 935.00
1437, 935.00
1438, 935.00
1439, 936.00
1440, 935.00
1441, 936.00
1442, 936.00
1443, 936.00
1444, 935.00
1445, 937.00
1446, 936.00
1447, 937.00
1448, 937.00
1449, 938.00
1450, 938.00
1451, 939.00
1452, 939.00
1453, 939.00
1454, 939.00
1455, 940.00
1456, 940.00
1457, 940.00
1458, 940.00
1459, 942.00
1460, 942.00
1461, 941.00
1462, 942.00
1463, 943.00
1464, 943.00
1465, 944.00
1466, 944.00
1467, 944.00
1468, 945.00
1469, 946.00
1470, 946.00
1471, 946.00
1472, 946.00
1473, 947.00
1474, 948.00
1475, 948.00
1476, 949.00
1477, 949.00
1478, 950.00
1479, 950.00
1480, 950.00
1481, 951.00
1482, 952.00
1483, 953.00
1484, 952.00
1485, 953.00
1486, 955.00
1487, 954.00
1488, 955.00
1489, 955.00
1490, 956.00
1491, 956.00
1492, 957.00
1493, 958.00
1494, 958.00
1495, 959.00
1496, 959.00
1497, 959.00
1498, 960.00
1499, 961.00
1500, 961.00
1501, 961.00
1502, 962.00
1503, 963.00
1504, 964.00
1505, 964.00
1506, 964.00
1507, 965.00
1508, 965.00
1509, 966.00
1510, 968.00
1511, 967.00
1512, 967.00
1513, 968.00
1514, 969.00
1515, 969.00
1516, 970.00
1517, 970.00
1518, 971.00
1519, 971.00
1520, 972.00
1521, 973.00
1522, 974.00
1523, 974.00
1524, 974.00
1525, 975.00
1526, 976.00
1527, 977.00
1528, 977.00
1529, 978.00
1530, 979.00
1531, 979.00
1532, 979.00
1533, 980.00
1534, 981.00
1535, 981.00
1536, 982.00
1537, 982.00
1538, 984.00
1539, 983.00
1540, 985.00
1541, 984.00
1542, 985.00
1543, 986.00
1544, 987.00
1545, 988.00
1546, 988.00
1547, 988.00
1548, 989.00
1549, 990.00
1550, 990.00
1551, 991.00
1552, 991.00
1553, 991.00
1554, 993.00
1555, 992.00
1556, 993.00
1557, 994.00
1558, 995.00
1559, 995.00
1560, 997.00
1561, 997.00
1562, 997.00
1563, 998.00
1564, 999.00
1565, 1000.00
1566, 1000.00
1567, 1001.00
1568, 1002.00
1569, 1002.00
1570, 1003.00
1571, 1002.00
1572, 1004.00
1573, 1005.00
1574, 1005.00
1575, 1005.00
1576, 1006.00
1577, 1008.00
1578, 1007.00
1579, 1009.00
1580, 1008.00
1581, 1010.00
1582, 1010.00
1583, 1010.00
1584, 1011.00
1585, 1012.00
1586, 1013.00
1587, 1013.00
1588, 1013.00
1589, 1014.00
1590, 1015.00
1591, 1015.00
1592, 1015.00
1593, 1016.00
1594, 1017.00
1595, 1017.00
1596, 1018.00
1597, 1019.00
1598, 1019.00
1599, 1019.00
1600, 1021.00
1601, 1021.00
1602, 1022.00
1603, 1022.00
1604, 1024.00
1605, 1024.00
1606, 1025.00
1607, 1025.00
1608, 1026.00
1609, 1027.00
1610, 1028.00
1611, 1029.00
1612, 1029.00
1613, 1031.00
1614, 1030.00
1615, 1031.00
1616, 1033.00
1617, 1034.00
1618, 1034.00
1619, 1035.00
1620, 1036.00
1621, 1037.00
1622, 1037.00
1623, 1037.00
1624, 1040.00
1625, 1039.00
1626, 1040.00
1627, 1041.00
1628, 1042.00
1629, 1043.00
1630, 1043.00
1631, 1044.00
1632, 1045.00
1633, 1046.00
1634, 1046.00
1635, 1047.00
1636, 1049.00
1637, 1049.00
1638, 1050.00
1639, 1050.00
1640, 1051.00
1641, 1051.00
1642, 1052.00
1643, 1053.00
1644, 1054.00
1645, 1054.00
1646, 1054.00
1647, 1056.00
1648, 1056.00
1649, 1057.00
1650, 1059.00

1750, 1473.00
1751, 1475.00
1752, 1475.00
1753, 1475.00
1754, 1474.00
1755, 1475.00
1756, 1475.00
1757, 1476.00
1758, 1474.00
1759, 1475.00
1760, 1475.00
1761, 1475.00
1762, 1474.00
1763, 1475.00
1764, 1474.00
1765, 1473.00
1766, 1473.00
1767, 1474.00
1768, 1476.00
1769, 1474.00
1770, 1473.00
1771, 1473.00
1772, 1476.00
1773, 1474.00
1774, 1473.00
1775, 1473.00
1776, 1474.00
1777, 1471.00
1778, 1474.00
1779, 1472.00
1780, 1473.00
1781, 1472.00
1782, 1473.00
1783, 1470.00
1784, 1470.00
1785, 1471.00
1786, 1470.00
1787, 1471.00
1788, 1470.00
1789, 1468.00
1790, 1468.00
1791, 1467.00
1792, 1470.00
1793, 1469.00
1794, 1467.00
1795, 1469.00
1796, 1468.00
1797, 1467.00
1798, 1467.00
1799, 1466.00
1800, 1466.00
1801, 1467.00
1802, 1467.00
1803, 1465.00
1804, 1466.00
1805, 1466.00
1806, 1467.00
1807, 1467.00
1808, 1464.00
1809, 1465.00
1810, 1465.00
1811, 1465.00
1812, 1464.00
1813, 1465.00
1814, 1464.00
1815, 1463.00
1816, 1463.00
1817, 1465.00
1818, 1462.00
1819, 1463.00
1820, 1463.00
1821, 1463.00
1822, 1461.00
1823, 1462.00
1824, 1461.00
1825, 1460.00
1826, 1460.00
1827, 1460.00
1828, 1461.00
1829, 1458.00
1830, 1457.00
1831, 1457.00
1832, 1459.00
1833, 1456.00
1834, 1456.00
1835, 1455.00
1836, 1455.00
1837, 1453.00
1838, 1454.00
1839, 1450.00
1840, 1450.00
1841, 1449.00
1842, 1448.00
1843, 1447.00
1844, 1446.00
1845, 1445.00
1846, 1444.00
1847, 1443.00
1848, 1443.00
1849, 1440.00
1850, 1439.00
1851, 1440.00
1852, 1438.00
1853, 1436.00
1854, 1435.00
1855, 1434.00
1856, 1432.00
1857, 1434.00
1858, 1430.00
1859, 1430.00
1860, 1428.00
1861, 1427.00
1862, 1427.00
1863, 1426.00
1864, 1424.00
1865, 1421.00
1866, 1421.00
1867, 1420.00
1868, 1419.00
1869, 1419.00
1870, 1418.00
1871, 1418.00
1872, 1417.00
1873, 1415.00
1874, 1414.00
1875, 1414.00
1876, 1412.00
1877, 1414.00
1878, 1411.00
1879, 1410.00
1880, 1411.00
1881, 1410.00
1882, 1410.00
1883, 1410.00
1884, 1409.00
1885, 1409.00
1886, 1409.00
1887, 1408.00
1888, 1409.00
1889, 1406.00
1890, 1406.00
1891, 1406.00
1892, 1408.00
1893, 1406.00
1894, 1406.00
1895, 1407.00
1896, 1406.00
1897, 1404.00
1898, 1403.00
1899, 1406.00
1900, 1405.00
1901, 1403.00
1902, 1405.00
1903, 1405.00
1904, 1405.00
1905, 1405.00
1906, 1405.00
1907, 1403.00
1908, 1403.00
1909, 1405.00
1910, 1404.00
1911, 1403.00
1912, 1402.00
1913, 1403.00
1914, 1403.00
1915, 1402.00
1916, 1402.00
1917, 1403.00
1918, 1403.00
1919, 1401.00
1920, 1403.00
1921, 1400.00
1922, 1402.00
1923, 1402.00
1924, 1403.00
1925, 1402.00
1926, 1402.00
1927, 1405.00
1928, 1402.00
1929, 1404.00
1930, 1403.00
1931, 1404.00
1932, 1403.00
1933, 1405.00
1934, 1404.00
1935, 1402.00
1936, 1403.00
1937, 1403.00
1938, 1403.00
1939, 1404.00
1940, 1403.00
1941, 1404.00
1942, 1405.00
1943, 1404.00
1944, 1404.00
1945, 1406.00
1946, 1403.00
1947, 1406.00
1948, 1405.00
1949, 1404.00
1950, 1405.00
1951, 1406.00
1952, 1405.00
1953, 1405.00
1954, 1407.00
1955, 1407.00
1956, 1407.00
1957, 1408.00
1958, 1407.00
1959, 1407.00
1960, 1408.00
1961, 1407.00
1962, 1409.00
1963, 1409.00
1964, 1411.00
1965, 1410.00
1966, 1411.00
1967, 1411.00
1968, 1412.00
1969, 1411.00
1970, 1412.00
1971, 1412.00
1972, 1411.00
1973, 1411.00
1974, 1411.00
1975, 1413.00
1976, 1413.00
1977, 1414.00
1978, 1412.00
1979, 1414.00
1980, 1415.00
1981, 1415.00
1982, 1417.00
1983, 1414.00
1984, 1415.00
1985, 1417.00
1986, 1418.00
1987, 1417.00
1988, 1417.00
1989, 1418.00
1990, 1421.00
1991, 1419.00
1992, 1417.00
1993, 1418.00
1994, 1420.00
1995, 1420.00
1996, 1420.00
1997, 1420.00
1998, 1421.00
1999, 1421.00
2000, 1421.00
2001, 1421.00
2002, 1423.00
2003, 1422.00
2004, 1424.00
2005, 1423.00
2006, 1423.00
2007, 1423.00
2008, 1425.00
2009, 1425.00
2010, 1424.00
2011, 1425.00
2012, 1425.00
2013, 1425.00
2014, 1427.00
2015, 1427.00
2016, 1426.00
2017, 1428.00
2018, 1427.00
2019, 1427.00
2020, 1428.00
2021, 1428.00
2022, 1430.00
2023, 1430.00
2024, 1432.00
2025, 1430.00
2026, 1430.00
2027, 1430.00
2028, 1431.00
2029, 1431.00
2030, 1433.00
2031, 1433.00
2032, 1432.00
2033, 1432.00
2034, 1433.00
2035, 1434.00
2036, 1433.00
2037, 1435.00
2038, 1435.00
2039, 1433.00
2040, 1436.00
2041, 1435.00
2042, 1437.00
2043, 1436.00
2044, 1436.00
2045, 1438.00
2046, 1439.00
2047, 1438.00
2048, 1439.00
2049, 1439.00
2050, 1442.00
2051, 1443.00
2052, 1442.00
2053, 1442.00
2054, 1443.00
2055, 1442.00
2056, 1444.00
2057, 1444.00
2058, 1444.00
2059, 1446.00
2060, 1446.00
2061, 1446.00
2062, 1445.00
2063, 1448.00
2064, 1448.00
2065, 1448.00
2066, 1448.00
2067, 1447.00
2068, 1450.00
2069, 1450.00
2070, 1451.00
2071, 1451.00
2072, 1451.00
2073, 1452.00
2074, 1452.00
2075, 1454.00
2076, 1454.00
2077, 1455.00
2078, 1453.00
2079, 1456.00
2080, 1455.00
2081, 1458.00
2082, 1454.00
2083, 1457.00
2084, 1458.00
2085, 1457.00
2086, 1459.00
2087, 1457.00
2088, 1459.00
2089, 1458.00
2090, 1458.00
2091, 1460.00
2092, 1460.00
2093, 1459.00
2094, 1462.00
2095, 1462.00
2096, 1463.00
2097, 1463.00
2098, 1460.00
2099, 1463.00
2100, 1463.00
2101, 1463.00
2102, 1464.00
2103, 1465.00
2104, 1463.00
2105, 1462.00
2106, 1464.00
2107, 1466.00
2108, 1464.00
2109, 1464.00
2110, 1466.00
2111, 1464.00
2112, 1467.00
2113, 1466.00
2114, 1465.00
2115, 1466.00
2116, 1467.00
2117, 1466.00
2118, 1466.00
2119, 1465.00
2120, 1468.00
2121, 1467.00
2122, 1465.00
2123, 1468.00
2124, 1466.00
2125, 1468.00
2126, 1468.00
2127, 1468.00
2128, 1467.00
2129, 1468.00
2130, 1469.00
2131, 1469.00
2132, 1468.00
2133, 1467.00
2134, 1469.00
2135, 1468.00
2136, 1470.00
2137, 1469.00
2138, 1468.00
2139, 1471.00
2140, 1470.00
2141, 1469.00
2142, 1471.00
2143, 1470.00
2144, 1471.00
2145, 1471.00
2146, 1471.00
2147, 1470.00
2148, 1470.00
2149, 1473.00
2150, 1471.00
