FW version: 24
Log Version: 3.0.3

General Info:
       Command/Macro Performed,            Timestamp,             Device ID, COM Port, UART/I2C, Test Name, Host Major, Host Minor, Host Revision, Host Git Commit
            Single_measurement,  2023_06_30_11_27_55,       Insight2_F4_xxx,    USB-C,      USB,          ,          0,          1,             1,      4031237645

Show Spectrometer Status:
l0_version, f4_version, battery_perc, battery_mVolt, accelerometer_temp, accelerometer_x, accelerometer_y, accelerometer_z, compass_temp, compass_x, compass_y, compass_z, lamp_0, lamp_1, gain_0, gain_1
        17,         24,           94,          2078,               6192,           65256,             188,           18448,            0,     65519,     65534,     18456,   3276,   3276,      0,      0

Temperature Statistic Info:
NTC AVG [°C], NTC2 AVG [°C]
      39.145,        38.825

Statistic Info:
M1:  num,      min,      max,   median,      AVG,      STD,M2:  num,      min,      max,   median,      AVG,      STD
     301,   576.00,   658.00,   593.00,   603.23,  25.3674,     401,   769.00,   819.00,   788.00,   790.09,  16.0652,

Measurements:
Wavelength, Data Amplitude
1350, 592.00
1351, 591.00
1352, 591.00
1353, 591.00
1354, 590.00
1355, 590.00
1356, 590.00
1357, 590.00
1358, 589.00
1359, 589.00
1360, 589.00
1361, 588.00
1362, 588.00
1363, 588.00
1364, 587.00
1365, 586.00
1366, 586.00
1367, 586.00
1368, 586.00
1369, 585.00
1370, 584.00
1371, 584.00
1372, 584.00
1373, 583.00
1374, 584.00
1375, 583.00
1376, 582.00
1377, 582.00
1378, 581.00
1379, 581.00
1380, 581.00
1381, 581.00
1382, 581.00
1383, 580.00
1384, 581.00
1385, 580.00
1386, 579.00
1387, 579.00
1388, 579.00
1389, 579.00
1390, 579.00
1391, 579.00
1392, 578.00
1393, 578.00
1394, 578.00
1395, 578.00
1396, 578.00
1397, 578.00
1398, 578.00
1399, 578.00
1400, 578.00
1401, 578.00
1402, 577.00
1403, 578.00
1404, 577.00
1405, 577.00
1406, 577.00
1407, 577.00
1408, 577.00
1409, 577.00
1410, 577.00
1411, 577.00
1412, 577.00
1413, 577.00
1414, 576.00
1415, 577.00
1416, 576.00
1417, 577.00
1418, 576.00
1419, 577.00
1420, 576.00
1421, 576.00
1422, 577.00
1423, 577.00
1424, 577.00
1425, 577.00
1426, 577.00
1427, 576.00
1428, 577.00
1429, 577.00
1430, 577.00
1431, 577.00
1432, 577.00
1433, 577.00
1434, 577.00
1435, 577.00
1436, 577.00
1437, 578.00
1438, 578.00
1439, 578.00
1440, 578.00
1441, 577.00
1442, 578.00
1443, 578.00
1444, 578.00
1445, 578.00
1446, 578.00
1447, 579.00
1448, 579.00
1449, 579.00
1450, 579.00
1451, 580.00
1452, 579.00
1453, 580.00
1454, 580.00
1455, 580.00
1456, 580.00
1457, 581.00
1458, 581.00
1459, 581.00
1460, 581.00
1461, 582.00
1462, 581.00
1463, 582.00
1464, 582.00
1465, 583.00
1466, 582.00
1467, 583.00
1468, 584.00
1469, 584.00
1470, 583.00
1471, 584.00
1472, 584.00
1473, 584.00
1474, 584.00
1475, 585.00
1476, 585.00
1477, 585.00
1478, 586.00
1479, 586.00
1480, 587.00
1481, 586.00
1482, 587.00
1483, 587.00
1484, 588.00
1485, 588.00
1486, 588.00
1487, 589.00
1488, 590.00
1489, 590.00
1490, 590.00
1491, 590.00
1492, 590.00
1493, 591.00
1494, 591.00
1495, 591.00
1496, 592.00
1497, 592.00
1498, 592.00
1499, 593.00
1500, 593.00
1501, 593.00
1502, 594.00
1503, 594.00
1504, 594.00
1505, 595.00
1506, 595.00
1507, 595.00
1508, 595.00
1509, 597.00
1510, 597.00
1511, 597.00
1512, 598.00
1513, 598.00
1514, 598.00
1515, 598.00
1516, 599.00
1517, 600.00
1518, 600.00
1519, 600.00
1520, 600.00
1521, 601.00
1522, 601.00
1523, 602.00
1524, 602.00
1525, 602.00
1526, 603.00
1527, 603.00
1528, 604.00
1529, 604.00
1530, 604.00
1531, 605.00
1532, 605.00
1533, 606.00
1534, 606.00
1535, 607.00
1536, 607.00
1537, 607.00
1538, 608.00
1539, 608.00
1540, 609.00
1541, 609.00
1542, 609.00
1543, 610.00
1544, 610.00
1545, 611.00
1546, 611.00
1547, 611.00
1548, 612.00
1549, 612.00
1550, 613.00
1551, 613.00
1552, 613.00
1553, 614.00
1554, 615.00
1555, 615.00
1556, 615.00
1557, 616.00
1558, 616.00
1559, 617.00
1560, 617.00
1561, 618.00
1562, 618.00
1563, 619.00
1564, 619.00
1565, 620.00
1566, 620.00
1567, 620.00
1568, 621.00
1569, 621.00
1570, 622.00
1571, 622.00
1572, 623.00
1573, 623.00
1574, 624.00
1575, 624.00
1576, 624.00
1577, 625.00
1578, 626.00
1579, 626.00
1580, 626.00
1581, 626.00
1582, 627.00
1583, 627.00
1584, 628.00
1585, 629.00
1586, 629.00
1587, 629.00
1588, 630.00
1589, 630.00
1590, 630.00
1591, 631.00
1592, 631.00
1593, 632.00
1594, 632.00
1595, 632.00
1596, 633.00
1597, 633.00
1598, 634.00
1599, 634.00
1600, 634.00
1601, 635.00
1602, 635.00
1603, 635.00
1604, 637.00
1605, 637.00
1606, 637.00
1607, 637.00
1608, 638.00
1609, 638.00
1610, 639.00
1611, 640.00
1612, 640.00
1613, 640.00
1614, 641.00
1615, 641.00
1616, 642.00
1617, 642.00
1618, 643.00
1619, 644.00
1620, 644.00
1621, 644.00
1622, 645.00
1623, 645.00
1624, 646.00
1625, 647.00
1626, 648.00
1627, 647.00
1628, 649.00
1629, 649.00
1630, 649.00
1631, 650.00
1632, 650.00
1633, 650.00
1634, 651.00
1635, 651.00
1636, 652.00
1637, 652.00
1638, 653.00
1639, 654.00
1640, 653.00
1641, 654.00
1642, 654.00
1643, 655.00
1644, 656.00
1645, 656.00
1646, 656.00
1647, 657.00
1648, 657.00
1649, 658.00
1650, 658.00

1750, 817.00
1751, 818.00
1752, 817.00
1753, 818.00
1754, 818.00
1755, 818.00
1756, 817.00
1757, 817.00
1758, 819.00
1759, 818.00
1760, 818.00
1761, 817.00
1762, 818.00
1763, 818.00
1764, 817.00
1765, 818.00
1766, 817.00
1767, 817.00
1768, 817.00
1769, 818.00
1770, 817.00
1771, 817.00
1772, 816.00
1773, 817.00
1774, 816.00
1775, 817.00
1776, 816.00
1777, 816.00
1778, 816.00
1779, 816.00
1780, 815.00
1781, 815.00
1782, 815.00
1783, 815.00
1784, 815.00
1785, 815.00
1786, 815.00
1787, 814.00
1788, 814.00
1789, 814.00
1790, 814.00
1791, 813.00
1792, 814.00
1793, 813.00
1794, 814.00
1795, 813.00
1796, 813.00
1797, 813.00
1798, 812.00
1799, 812.00
1800, 813.00
1801, 812.00
1802, 812.00
1803, 812.00
1804, 811.00
1805, 811.00
1806, 811.00
1807, 811.00
1808, 811.00
1809, 811.00
1810, 811.00
1811, 810.00
1812, 810.00
1813, 810.00
1814, 809.00
1815, 810.00
1816, 809.00
1817, 809.00
1818, 809.00
1819, 809.00
1820, 809.00
1821, 808.00
1822, 807.00
1823, 807.00
1824, 807.00
1825, 807.00
1826, 806.00
1827, 806.00
1828, 805.00
1829, 805.00
1830, 805.00
1831, 804.00
1832, 803.00
1833, 803.00
1834, 802.00
1835, 802.00
1836, 801.00
1837, 801.00
1838, 800.00
1839, 799.00
1840, 798.00
1841, 798.00
1842, 797.00
1843, 796.00
1844, 795.00
1845, 795.00
1846, 794.00
1847, 794.00
1848, 792.00
1849, 792.00
1850, 791.00
1851, 791.00
1852, 789.00
1853, 789.00
1854, 788.00
1855, 787.00
1856, 786.00
1857, 786.00
1858, 785.00
1859, 784.00
1860, 783.00
1861, 783.00
1862, 782.00
1863, 782.00
1864, 781.00
1865, 781.00
1866, 780.00
1867, 779.00
1868, 780.00
1869, 779.00
1870, 778.00
1871, 778.00
1872, 778.00
1873, 776.00
1874, 776.00
1875, 776.00
1876, 775.00
1877, 776.00
1878, 775.00
1879, 774.00
1880, 774.00
1881, 774.00
1882, 774.00
1883, 774.00
1884, 774.00
1885, 773.00
1886, 773.00
1887, 773.00
1888, 773.00
1889, 773.00
1890, 772.00
1891, 772.00
1892, 773.00
1893, 772.00
1894, 772.00
1895, 771.00
1896, 771.00
1897, 771.00
1898, 772.00
1899, 771.00
1900, 771.00
1901, 771.00
1902, 771.00
1903, 770.00
1904, 771.00
1905, 771.00
1906, 770.00
1907, 770.00
1908, 770.00
1909, 770.00
1910, 770.00
1911, 769.00
1912, 770.00
1913, 770.00
1914, 771.00
1915, 770.00
1916, 769.00
1917, 770.00
1918, 770.00
1919, 769.00
1920, 769.00
1921, 770.00
1922, 769.00
1923, 769.00
1924, 770.00
1925, 769.00
1926, 769.00
1927, 770.00
1928, 769.00
1929, 769.00
1930, 769.00
1931, 770.00
1932, 769.00
1933, 769.00
1934, 769.00
1935, 769.00
1936, 770.00
1937, 769.00
1938, 769.00
1939, 770.00
1940, 769.00
1941, 770.00
1942, 770.00
1943, 769.00
1944, 769.00
1945, 769.00
1946, 770.00
1947, 770.00
1948, 770.00
1949, 770.00
1950, 770.00
1951, 770.00
1952, 770.00
1953, 770.00
1954, 771.00
1955, 771.00
1956, 770.00
1957, 770.00
1958, 771.00
1959, 770.00
1960, 772.00
1961, 771.00
1962, 772.00
1963, 772.00
1964, 772.00
1965, 772.00
1966, 772.00
1967, 772.00
1968, 772.00
1969, 773.00
1970, 773.00
1971, 773.00
1972, 773.00
1973, 773.00
1974, 774.00
1975, 773.00
1976, 774.00
1977, 774.00
1978, 774.00
1979, 774.00
1980, 774.00
1981, 775.00
1982, 775.00
1983, 775.00
1984, 775.00
1985, 776.00
1986, 775.00
1987, 774.00
1988, 776.00
1989, 776.00
1990, 777.00
1991, 776.00
1992, 776.00
1993, 776.00
1994, 776.00
1995, 777.00
1996, 778.00
1997, 777.00
1998, 777.00
1999, 778.00
2000, 778.00
2001, 778.00
2002, 777.00
2003, 778.00
2004, 778.00
2005, 778.00
2006, 779.00
2007, 779.00
2008, 779.00
2009, 779.00
2010, 779.00
2011, 780.00
2012, 779.00
2013, 780.00
2014, 781.00
2015, 780.00
2016, 780.00
2017, 781.00
2018, 781.00
2019, 781.00
2020, 781.00
2021, 781.00
2022, 782.00
2023, 782.00
2024, 782.00
2025, 782.00
2026, 782.00
2027, 783.00
2028, 782.00
2029, 783.00
2030, 782.00
2031, 783.00
2032, 783.00
2033, 783.00
2034, 784.00
2035, 784.00
2036, 784.00
2037, 785.00
2038, 785.00
2039, 785.00
2040, 786.00
2041, 785.00
2042, 785.00
2043, 785.00
2044, 786.00
2045, 787.00
2046, 786.00
2047, 787.00
2048, 787.00
2049, 788.00
2050, 787.00
2051, 787.00
2052, 788.00
2053, 788.00
2054, 789.00
2055, 789.00
2056, 789.00
2057, 788.00
2058, 790.00
2059, 790.00
2060, 790.00
2061, 791.00
2062, 790.00
2063, 791.00
2064, 791.00
2065, 792.00
2066, 791.00
2067, 792.00
2068, 792.00
2069, 792.00
2070, 793.00
2071, 793.00
2072, 793.00
2073, 793.00
2074, 793.00
2075, 794.00
2076, 794.00
2077, 794.00
2078, 795.00
2079, 794.00
2080, 795.00
2081, 796.00
2082, 796.00
2083, 796.00
2084, 797.00
2085, 797.00
2086, 796.00
2087, 797.00
2088, 797.00
2089, 798.00
2090, 797.00
2091, 798.00
2092, 798.00
2093, 798.00
2094, 798.00
2095, 798.00
2096, 799.00
2097, 799.00
2098, 800.00
2099, 799.00
2100, 800.00
2101, 800.00
2102, 799.00
2103, 800.00
2104, 801.00
2105, 801.00
2106, 800.00
2107, 800.00
2108, 802.00
2109, 800.00
2110, 801.00
2111, 801.00
2112, 801.00
2113, 802.00
2114, 802.00
2115, 801.00
2116, 801.00
2117, 802.00
2118, 801.00
2119, 802.00
2120, 802.00
2121, 803.00
2122, 803.00
2123, 802.00
2124, 803.00
2125, 802.00
2126, 803.00
2127, 802.00
2128, 803.00
2129, 804.00
2130, 803.00
2131, 803.00
2132, 804.00
2133, 803.00
2134, 804.00
2135, 804.00
2136, 804.00
2137, 804.00
2138, 804.00
2139, 804.00
2140, 804.00
2141, 804.00
2142, 805.00
2143, 805.00
2144, 804.00
2145, 805.00
2146, 805.00
2147, 805.00
2148, 805.00
2149, 806.00
2150, 805.00
