FW version: 24
Log Version: 3.0.3

General Info:
       Command/Macro Performed,            Timestamp,             Device ID, COM Port, UART/I2C, Test Name, Host Major, Host Minor, Host Revision, Host Git Commit
            Single_measurement,  2023_07_04_10_44_16,       Insight2_F4_xxx,    USB-C,      USB,          ,          0,          1,             1,      4031237645

Show Spectrometer Status:
l0_version, f4_version, battery_perc, battery_mVolt, accelerometer_temp, accelerometer_x, accelerometer_y, accelerometer_z, compass_temp, compass_x, compass_y, compass_z, lamp_0, lamp_1, gain_0, gain_1
        17,         24,            2,          1767,               5024,           64792,            1472,           18896,            0,     65470,     65474,     18907,   3276,   3276,      1,      1

Temperature Statistic Info:
NTC AVG [°C], NTC2 AVG [°C]
      34.341,        33.971

Statistic Info:
M1:  num,      min,      max,   median,      AVG,      STD,M2:  num,      min,      max,   median,      AVG,      STD
     301,  2111.00,  2415.00,  2173.00,  2210.91,  94.2029,     401,  2698.00,  2888.00,  2776.00,  2781.85,  61.4957,

Measurements:
Wavelength, Data Amplitude
1350, 2169.00
1351, 2167.00
1352, 2166.00
1353, 2165.00
1354, 2164.00
1355, 2164.00
1356, 2163.00
1357, 2162.00
1358, 2162.00
1359, 2159.00
1360, 2157.00
1361, 2157.00
1362, 2156.00
1363, 2154.00
1364, 2154.00
1365, 2152.00
1366, 2150.00
1367, 2149.00
1368, 2147.00
1369, 2145.00
1370, 2145.00
1371, 2143.00
1372, 2141.00
1373, 2140.00
1374, 2139.00
1375, 2137.00
1376, 2136.00
1377, 2133.00
1378, 2134.00
1379, 2132.00
1380, 2130.00
1381, 2130.00
1382, 2127.00
1383, 2128.00
1384, 2127.00
1385, 2125.00
1386, 2125.00
1387, 2123.00
1388, 2122.00
1389, 2123.00
1390, 2120.00
1391, 2121.00
1392, 2121.00
1393, 2121.00
1394, 2120.00
1395, 2119.00
1396, 2118.00
1397, 2117.00
1398, 2118.00
1399, 2117.00
1400, 2116.00
1401, 2115.00
1402, 2116.00
1403, 2115.00
1404, 2113.00
1405, 2114.00
1406, 2114.00
1407, 2113.00
1408, 2114.00
1409, 2114.00
1410, 2113.00
1411, 2114.00
1412, 2113.00
1413, 2113.00
1414, 2113.00
1415, 2112.00
1416, 2112.00
1417, 2113.00
1418, 2112.00
1419, 2112.00
1420, 2112.00
1421, 2112.00
1422, 2112.00
1423, 2112.00
1424, 2111.00
1425, 2112.00
1426, 2112.00
1427, 2113.00
1428, 2113.00
1429, 2112.00
1430, 2112.00
1431, 2113.00
1432, 2114.00
1433, 2113.00
1434, 2114.00
1435, 2115.00
1436, 2115.00
1437, 2114.00
1438, 2116.00
1439, 2116.00
1440, 2117.00
1441, 2117.00
1442, 2118.00
1443, 2118.00
1444, 2119.00
1445, 2118.00
1446, 2119.00
1447, 2121.00
1448, 2120.00
1449, 2121.00
1450, 2122.00
1451, 2122.00
1452, 2122.00
1453, 2124.00
1454, 2123.00
1455, 2125.00
1456, 2125.00
1457, 2127.00
1458, 2127.00
1459, 2128.00
1460, 2128.00
1461, 2130.00
1462, 2130.00
1463, 2131.00
1464, 2132.00
1465, 2132.00
1466, 2134.00
1467, 2133.00
1468, 2135.00
1469, 2136.00
1470, 2137.00
1471, 2138.00
1472, 2140.00
1473, 2141.00
1474, 2141.00
1475, 2143.00
1476, 2142.00
1477, 2144.00
1478, 2146.00
1479, 2146.00
1480, 2147.00
1481, 2149.00
1482, 2149.00
1483, 2152.00
1484, 2152.00
1485, 2154.00
1486, 2155.00
1487, 2157.00
1488, 2158.00
1489, 2159.00
1490, 2159.00
1491, 2161.00
1492, 2162.00
1493, 2165.00
1494, 2165.00
1495, 2166.00
1496, 2167.00
1497, 2168.00
1498, 2169.00
1499, 2170.00
1500, 2173.00
1501, 2173.00
1502, 2175.00
1503, 2176.00
1504, 2177.00
1505, 2179.00
1506, 2180.00
1507, 2182.00
1508, 2182.00
1509, 2184.00
1510, 2184.00
1511, 2186.00
1512, 2188.00
1513, 2190.00
1514, 2191.00
1515, 2192.00
1516, 2194.00
1517, 2195.00
1518, 2197.00
1519, 2198.00
1520, 2199.00
1521, 2201.00
1522, 2203.00
1523, 2205.00
1524, 2206.00
1525, 2206.00
1526, 2209.00
1527, 2210.00
1528, 2211.00
1529, 2213.00
1530, 2214.00
1531, 2216.00
1532, 2217.00
1533, 2219.00
1534, 2221.00
1535, 2222.00
1536, 2224.00
1537, 2224.00
1538, 2228.00
1539, 2229.00
1540, 2230.00
1541, 2231.00
1542, 2232.00
1543, 2234.00
1544, 2236.00
1545, 2237.00
1546, 2239.00
1547, 2240.00
1548, 2241.00
1549, 2243.00
1550, 2245.00
1551, 2247.00
1552, 2248.00
1553, 2249.00
1554, 2251.00
1555, 2252.00
1556, 2255.00
1557, 2257.00
1558, 2258.00
1559, 2261.00
1560, 2262.00
1561, 2263.00
1562, 2267.00
1563, 2267.00
1564, 2268.00
1565, 2271.00
1566, 2272.00
1567, 2274.00
1568, 2276.00
1569, 2276.00
1570, 2279.00
1571, 2282.00
1572, 2284.00
1573, 2284.00
1574, 2286.00
1575, 2288.00
1576, 2289.00
1577, 2292.00
1578, 2292.00
1579, 2295.00
1580, 2296.00
1581, 2297.00
1582, 2298.00
1583, 2301.00
1584, 2303.00
1585, 2304.00
1586, 2306.00
1587, 2307.00
1588, 2307.00
1589, 2309.00
1590, 2311.00
1591, 2313.00
1592, 2315.00
1593, 2316.00
1594, 2317.00
1595, 2318.00
1596, 2321.00
1597, 2321.00
1598, 2323.00
1599, 2326.00
1600, 2327.00
1601, 2327.00
1602, 2329.00
1603, 2331.00
1604, 2333.00
1605, 2335.00
1606, 2337.00
1607, 2338.00
1608, 2339.00
1609, 2342.00
1610, 2344.00
1611, 2347.00
1612, 2347.00
1613, 2349.00
1614, 2352.00
1615, 2353.00
1616, 2355.00
1617, 2358.00
1618, 2360.00
1619, 2362.00
1620, 2363.00
1621, 2366.00
1622, 2368.00
1623, 2370.00
1624, 2371.00
1625, 2373.00
1626, 2376.00
1627, 2377.00
1628, 2379.00
1629, 2382.00
1630, 2382.00
1631, 2385.00
1632, 2387.00
1633, 2388.00
1634, 2389.00
1635, 2391.00
1636, 2393.00
1637, 2395.00
1638, 2396.00
1639, 2397.00
1640, 2399.00
1641, 2400.00
1642, 2402.00
1643, 2403.00
1644, 2405.00
1645, 2406.00
1646, 2408.00
1647, 2411.00
1648, 2411.00
1649, 2413.00
1650, 2415.00

1750, 2886.00
1751, 2885.00
1752, 2885.00
1753, 2886.00
1754, 2886.00
1755, 2886.00
1756, 2886.00
1757, 2886.00
1758, 2885.00
1759, 2885.00
1760, 2886.00
1761, 2885.00
1762, 2888.00
1763, 2885.00
1764, 2885.00
1765, 2885.00
1766, 2883.00
1767, 2886.00
1768, 2883.00
1769, 2885.00
1770, 2883.00
1771, 2882.00
1772, 2884.00
1773, 2883.00
1774, 2881.00
1775, 2883.00
1776, 2880.00
1777, 2881.00
1778, 2879.00
1779, 2879.00
1780, 2879.00
1781, 2879.00
1782, 2879.00
1783, 2879.00
1784, 2877.00
1785, 2877.00
1786, 2875.00
1787, 2874.00
1788, 2873.00
1789, 2873.00
1790, 2871.00
1791, 2871.00
1792, 2872.00
1793, 2871.00
1794, 2870.00
1795, 2870.00
1796, 2868.00
1797, 2868.00
1798, 2869.00
1799, 2868.00
1800, 2866.00
1801, 2867.00
1802, 2865.00
1803, 2865.00
1804, 2864.00
1805, 2863.00
1806, 2862.00
1807, 2863.00
1808, 2861.00
1809, 2861.00
1810, 2859.00
1811, 2859.00
1812, 2859.00
1813, 2858.00
1814, 2857.00
1815, 2857.00
1816, 2856.00
1817, 2856.00
1818, 2856.00
1819, 2853.00
1820, 2854.00
1821, 2852.00
1822, 2851.00
1823, 2848.00
1824, 2847.00
1825, 2847.00
1826, 2846.00
1827, 2843.00
1828, 2843.00
1829, 2840.00
1830, 2839.00
1831, 2838.00
1832, 2836.00
1833, 2834.00
1834, 2830.00
1835, 2829.00
1836, 2829.00
1837, 2827.00
1838, 2823.00
1839, 2822.00
1840, 2819.00
1841, 2816.00
1842, 2814.00
1843, 2809.00
1844, 2809.00
1845, 2804.00
1846, 2802.00
1847, 2801.00
1848, 2796.00
1849, 2793.00
1850, 2791.00
1851, 2788.00
1852, 2785.00
1853, 2783.00
1854, 2776.00
1855, 2775.00
1856, 2774.00
1857, 2770.00
1858, 2767.00
1859, 2766.00
1860, 2763.00
1861, 2759.00
1862, 2757.00
1863, 2753.00
1864, 2751.00
1865, 2750.00
1866, 2747.00
1867, 2745.00
1868, 2742.00
1869, 2741.00
1870, 2737.00
1871, 2737.00
1872, 2734.00
1873, 2732.00
1874, 2732.00
1875, 2731.00
1876, 2729.00
1877, 2729.00
1878, 2727.00
1879, 2724.00
1880, 2723.00
1881, 2723.00
1882, 2721.00
1883, 2720.00
1884, 2719.00
1885, 2718.00
1886, 2714.00
1887, 2717.00
1888, 2715.00
1889, 2715.00
1890, 2715.00
1891, 2713.00
1892, 2712.00
1893, 2713.00
1894, 2711.00
1895, 2710.00
1896, 2709.00
1897, 2709.00
1898, 2709.00
1899, 2707.00
1900, 2707.00
1901, 2707.00
1902, 2707.00
1903, 2707.00
1904, 2704.00
1905, 2706.00
1906, 2706.00
1907, 2705.00
1908, 2704.00
1909, 2704.00
1910, 2703.00
1911, 2702.00
1912, 2703.00
1913, 2701.00
1914, 2702.00
1915, 2702.00
1916, 2702.00
1917, 2701.00
1918, 2702.00
1919, 2702.00
1920, 2701.00
1921, 2702.00
1922, 2701.00
1923, 2701.00
1924, 2702.00
1925, 2699.00
1926, 2702.00
1927, 2700.00
1928, 2698.00
1929, 2700.00
1930, 2700.00
1931, 2702.00
1932, 2702.00
1933, 2699.00
1934, 2700.00
1935, 2702.00
1936, 2701.00
1937, 2700.00
1938, 2702.00
1939, 2703.00
1940, 2701.00
1941, 2704.00
1942, 2703.00
1943, 2702.00
1944, 2703.00
1945, 2704.00
1946, 2705.00
1947, 2704.00
1948, 2703.00
1949, 2705.00
1950, 2702.00
1951, 2704.00
1952, 2707.00
1953, 2707.00
1954, 2707.00
1955, 2707.00
1956, 2708.00
1957, 2706.00
1958, 2708.00
1959, 2711.00
1960, 2709.00
1961, 2709.00
1962, 2709.00
1963, 2712.00
1964, 2711.00
1965, 2713.00
1966, 2712.00
1967, 2713.00
1968, 2715.00
1969, 2712.00
1970, 2715.00
1971, 2713.00
1972, 2717.00
1973, 2718.00
1974, 2716.00
1975, 2717.00
1976, 2717.00
1977, 2720.00
1978, 2720.00
1979, 2721.00
1980, 2720.00
1981, 2721.00
1982, 2721.00
1983, 2724.00
1984, 2723.00
1985, 2724.00
1986, 2725.00
1987, 2725.00
1988, 2725.00
1989, 2727.00
1990, 2727.00
1991, 2729.00
1992, 2728.00
1993, 2728.00
1994, 2730.00
1995, 2732.00
1996, 2731.00
1997, 2732.00
1998, 2733.00
1999, 2733.00
2000, 2733.00
2001, 2736.00
2002, 2736.00
2003, 2735.00
2004, 2736.00
2005, 2737.00
2006, 2740.00
2007, 2737.00
2008, 2738.00
2009, 2740.00
2010, 2741.00
2011, 2742.00
2012, 2741.00
2013, 2741.00
2014, 2742.00
2015, 2744.00
2016, 2745.00
2017, 2747.00
2018, 2748.00
2019, 2747.00
2020, 2747.00
2021, 2748.00
2022, 2747.00
2023, 2749.00
2024, 2751.00
2025, 2750.00
2026, 2750.00
2027, 2751.00
2028, 2753.00
2029, 2753.00
2030, 2755.00
2031, 2754.00
2032, 2757.00
2033, 2756.00
2034, 2756.00
2035, 2759.00
2036, 2758.00
2037, 2761.00
2038, 2760.00
2039, 2761.00
2040, 2763.00
2041, 2763.00
2042, 2764.00
2043, 2765.00
2044, 2766.00
2045, 2767.00
2046, 2769.00
2047, 2769.00
2048, 2771.00
2049, 2771.00
2050, 2772.00
2051, 2773.00
2052, 2775.00
2053, 2774.00
2054, 2773.00
2055, 2777.00
2056, 2777.00
2057, 2780.00
2058, 2779.00
2059, 2779.00
2060, 2782.00
2061, 2783.00
2062, 2784.00
2063, 2784.00
2064, 2785.00
2065, 2786.00
2066, 2788.00
2067, 2789.00
2068, 2792.00
2069, 2791.00
2070, 2793.00
2071, 2793.00
2072, 2794.00
2073, 2795.00
2074, 2797.00
2075, 2795.00
2076, 2797.00
2077, 2799.00
2078, 2801.00
2079, 2801.00
2080, 2803.00
2081, 2803.00
2082, 2802.00
2083, 2804.00
2084, 2806.00
2085, 2805.00
2086, 2806.00
2087, 2808.00
2088, 2807.00
2089, 2808.00
2090, 2811.00
2091, 2810.00
2092, 2811.00
2093, 2814.00
2094, 2813.00
2095, 2814.00
2096, 2814.00
2097, 2816.00
2098, 2816.00
2099, 2817.00
2100, 2817.00
2101, 2820.00
2102, 2819.00
2103, 2819.00
2104, 2820.00
2105, 2820.00
2106, 2821.00
2107, 2821.00
2108, 2821.00
2109, 2822.00
2110, 2823.00
2111, 2824.00
2112, 2824.00
2113, 2824.00
2114, 2825.00
2115, 2826.00
2116, 2826.00
2117, 2825.00
2118, 2827.00
2119, 2826.00
2120, 2826.00
2121, 2828.00
2122, 2827.00
2123, 2827.00
2124, 2828.00
2125, 2829.00
2126, 2830.00
2127, 2829.00
2128, 2831.00
2129, 2830.00
2130, 2831.00
2131, 2831.00
2132, 2832.00
2133, 2833.00
2134, 2832.00
2135, 2833.00
2136, 2832.00
2137, 2834.00
2138, 2834.00
2139, 2835.00
2140, 2835.00
2141, 2836.00
2142, 2835.00
2143, 2835.00
2144, 2835.00
2145, 2836.00
2146, 2835.00
2147, 2836.00
2148, 2835.00
2149, 2836.00
2150, 2836.00
