FW version: 24
Log Version: 3.0.3

General Info:
       Command/Macro Performed,            Timestamp,             Device ID, COM Port, UART/I2C, Test Name, Host Major, Host Minor, Host Revision, Host Git Commit
            Single_measurement,  2023_06_28_11_34_53,       Insight2_F4_xxx,    USB-C,      USB,          ,          0,          1,             1,      4031237645

Show Spectrometer Status:
l0_version, f4_version, battery_perc, battery_mVolt, accelerometer_temp, accelerometer_x, accelerometer_y, accelerometer_z, compass_temp, compass_x, compass_y, compass_z, lamp_0, lamp_1, gain_0, gain_1
        17,         24,           44,          1896,               6480,           65316,            1228,           18828,            0,     65447,     65502,     18861,   3276,   3276,      1,      1

Temperature Statistic Info:
NTC AVG [°C], NTC2 AVG [°C]
      40.024,        39.704

Statistic Info:
M1:  num,      min,      max,   median,      AVG,      STD,M2:  num,      min,      max,   median,      AVG,      STD
     301,  2079.00,  2405.00,  2145.00,  2185.78, 101.1038,     401,  2684.00,  2881.00,  2763.00,  2768.84,  63.4842,

Measurements:
Wavelength, Data Amplitude
1350, 2143.00
1351, 2141.00
1352, 2139.00
1353, 2139.00
1354, 2137.00
1355, 2136.00
1356, 2136.00
1357, 2134.00
1358, 2133.00
1359, 2131.00
1360, 2130.00
1361, 2129.00
1362, 2128.00
1363, 2124.00
1364, 2122.00
1365, 2121.00
1366, 2119.00
1367, 2120.00
1368, 2117.00
1369, 2115.00
1370, 2113.00
1371, 2111.00
1372, 2109.00
1373, 2107.00
1374, 2107.00
1375, 2106.00
1376, 2102.00
1377, 2102.00
1378, 2101.00
1379, 2099.00
1380, 2098.00
1381, 2097.00
1382, 2096.00
1383, 2093.00
1384, 2094.00
1385, 2093.00
1386, 2092.00
1387, 2091.00
1388, 2091.00
1389, 2090.00
1390, 2088.00
1391, 2087.00
1392, 2087.00
1393, 2087.00
1394, 2087.00
1395, 2085.00
1396, 2085.00
1397, 2085.00
1398, 2086.00
1399, 2085.00
1400, 2083.00
1401, 2083.00
1402, 2083.00
1403, 2083.00
1404, 2082.00
1405, 2082.00
1406, 2081.00
1407, 2081.00
1408, 2081.00
1409, 2081.00
1410, 2080.00
1411, 2080.00
1412, 2082.00
1413, 2080.00
1414, 2081.00
1415, 2080.00
1416, 2080.00
1417, 2080.00
1418, 2080.00
1419, 2079.00
1420, 2079.00
1421, 2079.00
1422, 2080.00
1423, 2081.00
1424, 2080.00
1425, 2080.00
1426, 2081.00
1427, 2081.00
1428, 2080.00
1429, 2081.00
1430, 2080.00
1431, 2080.00
1432, 2081.00
1433, 2082.00
1434, 2082.00
1435, 2084.00
1436, 2083.00
1437, 2083.00
1438, 2084.00
1439, 2084.00
1440, 2085.00
1441, 2085.00
1442, 2085.00
1443, 2087.00
1444, 2086.00
1445, 2088.00
1446, 2088.00
1447, 2088.00
1448, 2089.00
1449, 2090.00
1450, 2089.00
1451, 2091.00
1452, 2091.00
1453, 2093.00
1454, 2093.00
1455, 2094.00
1456, 2094.00
1457, 2095.00
1458, 2096.00
1459, 2097.00
1460, 2098.00
1461, 2098.00
1462, 2099.00
1463, 2101.00
1464, 2102.00
1465, 2102.00
1466, 2103.00
1467, 2104.00
1468, 2106.00
1469, 2105.00
1470, 2108.00
1471, 2108.00
1472, 2109.00
1473, 2110.00
1474, 2112.00
1475, 2114.00
1476, 2113.00
1477, 2115.00
1478, 2115.00
1479, 2117.00
1480, 2119.00
1481, 2120.00
1482, 2121.00
1483, 2123.00
1484, 2124.00
1485, 2126.00
1486, 2126.00
1487, 2126.00
1488, 2128.00
1489, 2130.00
1490, 2131.00
1491, 2133.00
1492, 2136.00
1493, 2136.00
1494, 2136.00
1495, 2137.00
1496, 2140.00
1497, 2140.00
1498, 2142.00
1499, 2143.00
1500, 2145.00
1501, 2146.00
1502, 2147.00
1503, 2148.00
1504, 2149.00
1505, 2151.00
1506, 2153.00
1507, 2154.00
1508, 2156.00
1509, 2157.00
1510, 2159.00
1511, 2159.00
1512, 2161.00
1513, 2163.00
1514, 2165.00
1515, 2165.00
1516, 2167.00
1517, 2169.00
1518, 2171.00
1519, 2173.00
1520, 2174.00
1521, 2174.00
1522, 2176.00
1523, 2177.00
1524, 2178.00
1525, 2180.00
1526, 2182.00
1527, 2183.00
1528, 2186.00
1529, 2188.00
1530, 2189.00
1531, 2190.00
1532, 2193.00
1533, 2194.00
1534, 2196.00
1535, 2197.00
1536, 2200.00
1537, 2201.00
1538, 2202.00
1539, 2203.00
1540, 2206.00
1541, 2208.00
1542, 2209.00
1543, 2210.00
1544, 2211.00
1545, 2214.00
1546, 2216.00
1547, 2217.00
1548, 2219.00
1549, 2220.00
1550, 2223.00
1551, 2223.00
1552, 2226.00
1553, 2228.00
1554, 2230.00
1555, 2231.00
1556, 2232.00
1557, 2235.00
1558, 2237.00
1559, 2239.00
1560, 2241.00
1561, 2242.00
1562, 2245.00
1563, 2246.00
1564, 2248.00
1565, 2250.00
1566, 2252.00
1567, 2254.00
1568, 2256.00
1569, 2258.00
1570, 2259.00
1571, 2262.00
1572, 2263.00
1573, 2265.00
1574, 2267.00
1575, 2269.00
1576, 2271.00
1577, 2272.00
1578, 2274.00
1579, 2276.00
1580, 2278.00
1581, 2279.00
1582, 2280.00
1583, 2282.00
1584, 2284.00
1585, 2286.00
1586, 2289.00
1587, 2289.00
1588, 2291.00
1589, 2292.00
1590, 2293.00
1591, 2296.00
1592, 2297.00
1593, 2298.00
1594, 2301.00
1595, 2303.00
1596, 2305.00
1597, 2305.00
1598, 2308.00
1599, 2309.00
1600, 2311.00
1601, 2312.00
1602, 2314.00
1603, 2316.00
1604, 2318.00
1605, 2319.00
1606, 2321.00
1607, 2322.00
1608, 2325.00
1609, 2327.00
1610, 2330.00
1611, 2332.00
1612, 2332.00
1613, 2335.00
1614, 2337.00
1615, 2339.00
1616, 2341.00
1617, 2343.00
1618, 2346.00
1619, 2347.00
1620, 2349.00
1621, 2351.00
1622, 2353.00
1623, 2355.00
1624, 2357.00
1625, 2360.00
1626, 2361.00
1627, 2363.00
1628, 2367.00
1629, 2368.00
1630, 2369.00
1631, 2371.00
1632, 2374.00
1633, 2375.00
1634, 2377.00
1635, 2378.00
1636, 2381.00
1637, 2382.00
1638, 2384.00
1639, 2385.00
1640, 2387.00
1641, 2389.00
1642, 2390.00
1643, 2391.00
1644, 2392.00
1645, 2396.00
1646, 2397.00
1647, 2398.00
1648, 2401.00
1649, 2402.00
1650, 2405.00

1750, 2880.00
1751, 2881.00
1752, 2879.00
1753, 2880.00
1754, 2880.00
1755, 2879.00
1756, 2880.00
1757, 2881.00
1758, 2878.00
1759, 2879.00
1760, 2878.00
1761, 2878.00
1762, 2875.00
1763, 2878.00
1764, 2878.00
1765, 2879.00
1766, 2877.00
1767, 2878.00
1768, 2878.00
1769, 2875.00
1770, 2875.00
1771, 2876.00
1772, 2875.00
1773, 2874.00
1774, 2874.00
1775, 2871.00
1776, 2872.00
1777, 2873.00
1778, 2872.00
1779, 2871.00
1780, 2869.00
1781, 2870.00
1782, 2870.00
1783, 2868.00
1784, 2869.00
1785, 2868.00
1786, 2867.00
1787, 2865.00
1788, 2865.00
1789, 2863.00
1790, 2863.00
1791, 2861.00
1792, 2861.00
1793, 2861.00
1794, 2861.00
1795, 2859.00
1796, 2860.00
1797, 2858.00
1798, 2857.00
1799, 2857.00
1800, 2857.00
1801, 2857.00
1802, 2857.00
1803, 2854.00
1804, 2855.00
1805, 2853.00
1806, 2853.00
1807, 2853.00
1808, 2851.00
1809, 2850.00
1810, 2851.00
1811, 2849.00
1812, 2850.00
1813, 2847.00
1814, 2848.00
1815, 2848.00
1816, 2845.00
1817, 2843.00
1818, 2841.00
1819, 2841.00
1820, 2841.00
1821, 2840.00
1822, 2838.00
1823, 2838.00
1824, 2834.00
1825, 2832.00
1826, 2830.00
1827, 2830.00
1828, 2828.00
1829, 2824.00
1830, 2826.00
1831, 2822.00
1832, 2819.00
1833, 2819.00
1834, 2816.00
1835, 2813.00
1836, 2810.00
1837, 2808.00
1838, 2805.00
1839, 2803.00
1840, 2802.00
1841, 2799.00
1842, 2796.00
1843, 2792.00
1844, 2790.00
1845, 2786.00
1846, 2781.00
1847, 2779.00
1848, 2777.00
1849, 2771.00
1850, 2770.00
1851, 2767.00
1852, 2766.00
1853, 2764.00
1854, 2758.00
1855, 2754.00
1856, 2753.00
1857, 2748.00
1858, 2748.00
1859, 2743.00
1860, 2743.00
1861, 2740.00
1862, 2737.00
1863, 2733.00
1864, 2735.00
1865, 2731.00
1866, 2727.00
1867, 2727.00
1868, 2726.00
1869, 2723.00
1870, 2722.00
1871, 2719.00
1872, 2717.00
1873, 2715.00
1874, 2712.00
1875, 2710.00
1876, 2712.00
1877, 2709.00
1878, 2707.00
1879, 2707.00
1880, 2707.00
1881, 2706.00
1882, 2703.00
1883, 2704.00
1884, 2703.00
1885, 2701.00
1886, 2702.00
1887, 2700.00
1888, 2700.00
1889, 2701.00
1890, 2700.00
1891, 2697.00
1892, 2698.00
1893, 2696.00
1894, 2695.00
1895, 2697.00
1896, 2695.00
1897, 2696.00
1898, 2692.00
1899, 2692.00
1900, 2693.00
1901, 2693.00
1902, 2692.00
1903, 2691.00
1904, 2692.00
1905, 2690.00
1906, 2691.00
1907, 2688.00
1908, 2690.00
1909, 2689.00
1910, 2689.00
1911, 2691.00
1912, 2688.00
1913, 2688.00
1914, 2688.00
1915, 2687.00
1916, 2688.00
1917, 2688.00
1918, 2688.00
1919, 2687.00
1920, 2687.00
1921, 2687.00
1922, 2684.00
1923, 2687.00
1924, 2687.00
1925, 2686.00
1926, 2686.00
1927, 2688.00
1928, 2687.00
1929, 2687.00
1930, 2686.00
1931, 2686.00
1932, 2686.00
1933, 2687.00
1934, 2690.00
1935, 2688.00
1936, 2688.00
1937, 2686.00
1938, 2687.00
1939, 2688.00
1940, 2687.00
1941, 2690.00
1942, 2689.00
1943, 2689.00
1944, 2688.00
1945, 2691.00
1946, 2691.00
1947, 2689.00
1948, 2687.00
1949, 2689.00
1950, 2691.00
1951, 2691.00
1952, 2694.00
1953, 2692.00
1954, 2692.00
1955, 2691.00
1956, 2693.00
1957, 2692.00
1958, 2695.00
1959, 2695.00
1960, 2696.00
1961, 2694.00
1962, 2697.00
1963, 2696.00
1964, 2698.00
1965, 2695.00
1966, 2698.00
1967, 2698.00
1968, 2700.00
1969, 2702.00
1970, 2701.00
1971, 2701.00
1972, 2702.00
1973, 2701.00
1974, 2701.00
1975, 2704.00
1976, 2705.00
1977, 2706.00
1978, 2705.00
1979, 2706.00
1980, 2706.00
1981, 2708.00
1982, 2707.00
1983, 2709.00
1984, 2709.00
1985, 2711.00
1986, 2713.00
1987, 2713.00
1988, 2713.00
1989, 2714.00
1990, 2713.00
1991, 2713.00
1992, 2716.00
1993, 2715.00
1994, 2717.00
1995, 2716.00
1996, 2719.00
1997, 2720.00
1998, 2719.00
1999, 2719.00
2000, 2721.00
2001, 2721.00
2002, 2721.00
2003, 2722.00
2004, 2724.00
2005, 2725.00
2006, 2723.00
2007, 2725.00
2008, 2725.00
2009, 2726.00
2010, 2726.00
2011, 2727.00
2012, 2730.00
2013, 2730.00
2014, 2730.00
2015, 2729.00
2016, 2730.00
2017, 2731.00
2018, 2733.00
2019, 2733.00
2020, 2735.00
2021, 2734.00
2022, 2733.00
2023, 2736.00
2024, 2738.00
2025, 2735.00
2026, 2739.00
2027, 2739.00
2028, 2739.00
2029, 2740.00
2030, 2743.00
2031, 2740.00
2032, 2743.00
2033, 2743.00
2034, 2743.00
2035, 2744.00
2036, 2745.00
2037, 2747.00
2038, 2747.00
2039, 2747.00
2040, 2750.00
2041, 2751.00
2042, 2751.00
2043, 2752.00
2044, 2754.00
2045, 2754.00
2046, 2755.00
2047, 2756.00
2048, 2755.00
2049, 2758.00
2050, 2757.00
2051, 2759.00
2052, 2763.00
2053, 2761.00
2054, 2763.00
2055, 2762.00
2056, 2765.00
2057, 2766.00
2058, 2768.00
2059, 2768.00
2060, 2770.00
2061, 2769.00
2062, 2771.00
2063, 2771.00
2064, 2775.00
2065, 2774.00
2066, 2776.00
2067, 2777.00
2068, 2779.00
2069, 2778.00
2070, 2778.00
2071, 2783.00
2072, 2783.00
2073, 2781.00
2074, 2784.00
2075, 2784.00
2076, 2785.00
2077, 2787.00
2078, 2787.00
2079, 2789.00
2080, 2790.00
2081, 2790.00
2082, 2789.00
2083, 2793.00
2084, 2793.00
2085, 2793.00
2086, 2794.00
2087, 2795.00
2088, 2794.00
2089, 2796.00
2090, 2798.00
2091, 2799.00
2092, 2800.00
2093, 2799.00
2094, 2801.00
2095, 2801.00
2096, 2802.00
2097, 2804.00
2098, 2805.00
2099, 2806.00
2100, 2805.00
2101, 2805.00
2102, 2807.00
2103, 2805.00
2104, 2809.00
2105, 2811.00
2106, 2809.00
2107, 2810.00
2108, 2810.00
2109, 2812.00
2110, 2814.00
2111, 2811.00
2112, 2812.00
2113, 2812.00
2114, 2814.00
2115, 2812.00
2116, 2814.00
2117, 2814.00
2118, 2815.00
2119, 2817.00
2120, 2815.00
2121, 2815.00
2122, 2816.00
2123, 2819.00
2124, 2818.00
2125, 2819.00
2126, 2818.00
2127, 2819.00
2128, 2821.00
2129, 2821.00
2130, 2821.00
2131, 2822.00
2132, 2823.00
2133, 2821.00
2134, 2823.00
2135, 2825.00
2136, 2823.00
2137, 2822.00
2138, 2823.00
2139, 2826.00
2140, 2828.00
2141, 2825.00
2142, 2823.00
2143, 2826.00
2144, 2825.00
2145, 2826.00
2146, 2826.00
2147, 2827.00
2148, 2828.00
2149, 2825.00
2150, 2827.00
