FW version: 24
Log Version: 3.0.3

General Info:
       Command/Macro Performed,            Timestamp,             Device ID, COM Port, UART/I2C, Test Name, Host Major, Host Minor, Host Revision, Host Git Commit
            Single_measurement,  2023_06_28_11_34_48,       Insight2_F4_xxx,    USB-C,      USB,          ,          0,          1,             1,      4031237645

Show Spectrometer Status:
l0_version, f4_version, battery_perc, battery_mVolt, accelerometer_temp, accelerometer_x, accelerometer_y, accelerometer_z, compass_temp, compass_x, compass_y, compass_z, lamp_0, lamp_1, gain_0, gain_1
        17,         24,           44,          1897,               6464,           65136,             968,           18696,            0,     65528,     65502,     18735,   3276,   3276,      1,      1

Temperature Statistic Info:
NTC AVG [°C], NTC2 AVG [°C]
      39.995,        39.675

Statistic Info:
M1:  num,      min,      max,   median,      AVG,      STD,M2:  num,      min,      max,   median,      AVG,      STD
     301,  2079.00,  2405.00,  2145.00,  2186.31, 101.0893,     401,  2684.00,  2882.00,  2762.00,  2769.27,  63.4468,

Measurements:
Wavelength, Data Amplitude
1350, 2142.00
1351, 2141.00
1352, 2140.00
1353, 2141.00
1354, 2137.00
1355, 2136.00
1356, 2137.00
1357, 2133.00
1358, 2133.00
1359, 2131.00
1360, 2130.00
1361, 2128.00
1362, 2128.00
1363, 2125.00
1364, 2123.00
1365, 2123.00
1366, 2120.00
1367, 2120.00
1368, 2117.00
1369, 2114.00
1370, 2114.00
1371, 2112.00
1372, 2111.00
1373, 2108.00
1374, 2107.00
1375, 2106.00
1376, 2104.00
1377, 2103.00
1378, 2099.00
1379, 2100.00
1380, 2098.00
1381, 2097.00
1382, 2095.00
1383, 2096.00
1384, 2096.00
1385, 2093.00
1386, 2093.00
1387, 2092.00
1388, 2091.00
1389, 2090.00
1390, 2090.00
1391, 2089.00
1392, 2088.00
1393, 2088.00
1394, 2087.00
1395, 2087.00
1396, 2086.00
1397, 2086.00
1398, 2086.00
1399, 2083.00
1400, 2085.00
1401, 2085.00
1402, 2083.00
1403, 2083.00
1404, 2083.00
1405, 2084.00
1406, 2082.00
1407, 2082.00
1408, 2082.00
1409, 2081.00
1410, 2081.00
1411, 2081.00
1412, 2081.00
1413, 2080.00
1414, 2080.00
1415, 2082.00
1416, 2080.00
1417, 2081.00
1418, 2080.00
1419, 2080.00
1420, 2081.00
1421, 2079.00
1422, 2081.00
1423, 2081.00
1424, 2081.00
1425, 2080.00
1426, 2080.00
1427, 2080.00
1428, 2080.00
1429, 2081.00
1430, 2082.00
1431, 2081.00
1432, 2082.00
1433, 2082.00
1434, 2083.00
1435, 2083.00
1436, 2084.00
1437, 2084.00
1438, 2084.00
1439, 2085.00
1440, 2085.00
1441, 2087.00
1442, 2087.00
1443, 2087.00
1444, 2087.00
1445, 2088.00
1446, 2088.00
1447, 2089.00
1448, 2090.00
1449, 2090.00
1450, 2091.00
1451, 2091.00
1452, 2092.00
1453, 2094.00
1454, 2094.00
1455, 2094.00
1456, 2096.00
1457, 2094.00
1458, 2097.00
1459, 2098.00
1460, 2097.00
1461, 2099.00
1462, 2099.00
1463, 2101.00
1464, 2101.00
1465, 2102.00
1466, 2103.00
1467, 2105.00
1468, 2105.00
1469, 2106.00
1470, 2108.00
1471, 2109.00
1472, 2109.00
1473, 2111.00
1474, 2112.00
1475, 2113.00
1476, 2114.00
1477, 2115.00
1478, 2117.00
1479, 2118.00
1480, 2118.00
1481, 2121.00
1482, 2122.00
1483, 2124.00
1484, 2125.00
1485, 2127.00
1486, 2127.00
1487, 2127.00
1488, 2129.00
1489, 2131.00
1490, 2131.00
1491, 2133.00
1492, 2134.00
1493, 2135.00
1494, 2137.00
1495, 2139.00
1496, 2141.00
1497, 2142.00
1498, 2142.00
1499, 2143.00
1500, 2145.00
1501, 2146.00
1502, 2147.00
1503, 2149.00
1504, 2150.00
1505, 2152.00
1506, 2153.00
1507, 2154.00
1508, 2155.00
1509, 2158.00
1510, 2159.00
1511, 2159.00
1512, 2161.00
1513, 2164.00
1514, 2164.00
1515, 2166.00
1516, 2168.00
1517, 2169.00
1518, 2171.00
1519, 2172.00
1520, 2174.00
1521, 2175.00
1522, 2176.00
1523, 2178.00
1524, 2181.00
1525, 2181.00
1526, 2184.00
1527, 2185.00
1528, 2187.00
1529, 2188.00
1530, 2190.00
1531, 2192.00
1532, 2193.00
1533, 2195.00
1534, 2196.00
1535, 2197.00
1536, 2199.00
1537, 2201.00
1538, 2204.00
1539, 2204.00
1540, 2206.00
1541, 2208.00
1542, 2209.00
1543, 2211.00
1544, 2213.00
1545, 2215.00
1546, 2217.00
1547, 2219.00
1548, 2221.00
1549, 2222.00
1550, 2224.00
1551, 2224.00
1552, 2227.00
1553, 2228.00
1554, 2231.00
1555, 2233.00
1556, 2233.00
1557, 2235.00
1558, 2238.00
1559, 2238.00
1560, 2242.00
1561, 2244.00
1562, 2244.00
1563, 2247.00
1564, 2249.00
1565, 2251.00
1566, 2252.00
1567, 2254.00
1568, 2256.00
1569, 2258.00
1570, 2260.00
1571, 2261.00
1572, 2263.00
1573, 2264.00
1574, 2267.00
1575, 2268.00
1576, 2271.00
1577, 2273.00
1578, 2275.00
1579, 2276.00
1580, 2278.00
1581, 2280.00
1582, 2282.00
1583, 2284.00
1584, 2284.00
1585, 2287.00
1586, 2288.00
1587, 2290.00
1588, 2291.00
1589, 2293.00
1590, 2294.00
1591, 2295.00
1592, 2298.00
1593, 2299.00
1594, 2301.00
1595, 2303.00
1596, 2304.00
1597, 2305.00
1598, 2307.00
1599, 2310.00
1600, 2311.00
1601, 2313.00
1602, 2315.00
1603, 2316.00
1604, 2317.00
1605, 2319.00
1606, 2323.00
1607, 2324.00
1608, 2326.00
1609, 2327.00
1610, 2330.00
1611, 2331.00
1612, 2333.00
1613, 2335.00
1614, 2338.00
1615, 2339.00
1616, 2340.00
1617, 2344.00
1618, 2346.00
1619, 2348.00
1620, 2349.00
1621, 2352.00
1622, 2355.00
1623, 2357.00
1624, 2359.00
1625, 2360.00
1626, 2362.00
1627, 2364.00
1628, 2365.00
1629, 2368.00
1630, 2371.00
1631, 2371.00
1632, 2374.00
1633, 2376.00
1634, 2377.00
1635, 2379.00
1636, 2380.00
1637, 2383.00
1638, 2385.00
1639, 2386.00
1640, 2387.00
1641, 2390.00
1642, 2392.00
1643, 2391.00
1644, 2394.00
1645, 2395.00
1646, 2398.00
1647, 2399.00
1648, 2401.00
1649, 2403.00
1650, 2405.00

1750, 2880.00
1751, 2879.00
1752, 2881.00
1753, 2880.00
1754, 2878.00
1755, 2879.00
1756, 2881.00
1757, 2880.00
1758, 2880.00
1759, 2879.00
1760, 2877.00
1761, 2879.00
1762, 2882.00
1763, 2881.00
1764, 2877.00
1765, 2876.00
1766, 2879.00
1767, 2878.00
1768, 2876.00
1769, 2876.00
1770, 2876.00
1771, 2876.00
1772, 2874.00
1773, 2874.00
1774, 2874.00
1775, 2872.00
1776, 2874.00
1777, 2871.00
1778, 2872.00
1779, 2872.00
1780, 2872.00
1781, 2871.00
1782, 2869.00
1783, 2867.00
1784, 2868.00
1785, 2864.00
1786, 2867.00
1787, 2865.00
1788, 2864.00
1789, 2865.00
1790, 2865.00
1791, 2864.00
1792, 2865.00
1793, 2861.00
1794, 2862.00
1795, 2860.00
1796, 2860.00
1797, 2858.00
1798, 2859.00
1799, 2858.00
1800, 2858.00
1801, 2856.00
1802, 2857.00
1803, 2856.00
1804, 2855.00
1805, 2854.00
1806, 2853.00
1807, 2851.00
1808, 2851.00
1809, 2849.00
1810, 2854.00
1811, 2851.00
1812, 2849.00
1813, 2847.00
1814, 2848.00
1815, 2847.00
1816, 2843.00
1817, 2845.00
1818, 2845.00
1819, 2844.00
1820, 2839.00
1821, 2840.00
1822, 2840.00
1823, 2837.00
1824, 2834.00
1825, 2833.00
1826, 2833.00
1827, 2831.00
1828, 2828.00
1829, 2827.00
1830, 2825.00
1831, 2822.00
1832, 2820.00
1833, 2819.00
1834, 2816.00
1835, 2813.00
1836, 2811.00
1837, 2811.00
1838, 2807.00
1839, 2804.00
1840, 2801.00
1841, 2797.00
1842, 2795.00
1843, 2794.00
1844, 2788.00
1845, 2789.00
1846, 2784.00
1847, 2781.00
1848, 2777.00
1849, 2775.00
1850, 2773.00
1851, 2769.00
1852, 2765.00
1853, 2763.00
1854, 2759.00
1855, 2757.00
1856, 2753.00
1857, 2753.00
1858, 2749.00
1859, 2743.00
1860, 2744.00
1861, 2738.00
1862, 2735.00
1863, 2736.00
1864, 2735.00
1865, 2733.00
1866, 2729.00
1867, 2728.00
1868, 2725.00
1869, 2723.00
1870, 2719.00
1871, 2717.00
1872, 2716.00
1873, 2716.00
1874, 2714.00
1875, 2712.00
1876, 2715.00
1877, 2709.00
1878, 2709.00
1879, 2707.00
1880, 2706.00
1881, 2706.00
1882, 2704.00
1883, 2704.00
1884, 2704.00
1885, 2703.00
1886, 2702.00
1887, 2701.00
1888, 2702.00
1889, 2698.00
1890, 2701.00
1891, 2699.00
1892, 2697.00
1893, 2697.00
1894, 2697.00
1895, 2696.00
1896, 2695.00
1897, 2694.00
1898, 2694.00
1899, 2693.00
1900, 2692.00
1901, 2695.00
1902, 2693.00
1903, 2692.00
1904, 2692.00
1905, 2691.00
1906, 2690.00
1907, 2689.00
1908, 2689.00
1909, 2690.00
1910, 2689.00
1911, 2690.00
1912, 2688.00
1913, 2689.00
1914, 2688.00
1915, 2688.00
1916, 2689.00
1917, 2684.00
1918, 2687.00
1919, 2687.00
1920, 2687.00
1921, 2687.00
1922, 2687.00
1923, 2687.00
1924, 2688.00
1925, 2689.00
1926, 2685.00
1927, 2687.00
1928, 2687.00
1929, 2689.00
1930, 2689.00
1931, 2687.00
1932, 2687.00
1933, 2686.00
1934, 2686.00
1935, 2689.00
1936, 2688.00
1937, 2688.00
1938, 2687.00
1939, 2688.00
1940, 2689.00
1941, 2688.00
1942, 2688.00
1943, 2689.00
1944, 2690.00
1945, 2689.00
1946, 2691.00
1947, 2689.00
1948, 2691.00
1949, 2691.00
1950, 2690.00
1951, 2692.00
1952, 2692.00
1953, 2693.00
1954, 2693.00
1955, 2693.00
1956, 2695.00
1957, 2696.00
1958, 2695.00
1959, 2696.00
1960, 2696.00
1961, 2696.00
1962, 2694.00
1963, 2697.00
1964, 2698.00
1965, 2698.00
1966, 2700.00
1967, 2699.00
1968, 2701.00
1969, 2702.00
1970, 2700.00
1971, 2703.00
1972, 2702.00
1973, 2703.00
1974, 2704.00
1975, 2705.00
1976, 2705.00
1977, 2705.00
1978, 2706.00
1979, 2708.00
1980, 2708.00
1981, 2709.00
1982, 2710.00
1983, 2710.00
1984, 2710.00
1985, 2711.00
1986, 2713.00
1987, 2713.00
1988, 2711.00
1989, 2713.00
1990, 2717.00
1991, 2713.00
1992, 2715.00
1993, 2713.00
1994, 2718.00
1995, 2717.00
1996, 2716.00
1997, 2718.00
1998, 2722.00
1999, 2719.00
2000, 2721.00
2001, 2720.00
2002, 2722.00
2003, 2723.00
2004, 2724.00
2005, 2724.00
2006, 2724.00
2007, 2724.00
2008, 2726.00
2009, 2727.00
2010, 2727.00
2011, 2730.00
2012, 2729.00
2013, 2729.00
2014, 2730.00
2015, 2729.00
2016, 2731.00
2017, 2731.00
2018, 2732.00
2019, 2733.00
2020, 2733.00
2021, 2734.00
2022, 2735.00
2023, 2736.00
2024, 2738.00
2025, 2738.00
2026, 2739.00
2027, 2739.00
2028, 2741.00
2029, 2741.00
2030, 2741.00
2031, 2743.00
2032, 2745.00
2033, 2744.00
2034, 2743.00
2035, 2746.00
2036, 2746.00
2037, 2747.00
2038, 2750.00
2039, 2749.00
2040, 2750.00
2041, 2750.00
2042, 2749.00
2043, 2750.00
2044, 2755.00
2045, 2753.00
2046, 2756.00
2047, 2758.00
2048, 2757.00
2049, 2759.00
2050, 2758.00
2051, 2760.00
2052, 2759.00
2053, 2762.00
2054, 2762.00
2055, 2764.00
2056, 2765.00
2057, 2767.00
2058, 2766.00
2059, 2767.00
2060, 2771.00
2061, 2770.00
2062, 2773.00
2063, 2773.00
2064, 2775.00
2065, 2774.00
2066, 2775.00
2067, 2776.00
2068, 2776.00
2069, 2779.00
2070, 2779.00
2071, 2781.00
2072, 2781.00
2073, 2783.00
2074, 2783.00
2075, 2784.00
2076, 2787.00
2077, 2787.00
2078, 2786.00
2079, 2790.00
2080, 2789.00
2081, 2791.00
2082, 2791.00
2083, 2792.00
2084, 2792.00
2085, 2795.00
2086, 2794.00
2087, 2797.00
2088, 2798.00
2089, 2799.00
2090, 2799.00
2091, 2798.00
2092, 2801.00
2093, 2802.00
2094, 2804.00
2095, 2803.00
2096, 2802.00
2097, 2803.00
2098, 2805.00
2099, 2805.00
2100, 2807.00
2101, 2807.00
2102, 2808.00
2103, 2806.00
2104, 2807.00
2105, 2807.00
2106, 2811.00
2107, 2811.00
2108, 2811.00
2109, 2810.00
2110, 2811.00
2111, 2814.00
2112, 2812.00
2113, 2811.00
2114, 2814.00
2115, 2815.00
2116, 2815.00
2117, 2814.00
2118, 2816.00
2119, 2815.00
2120, 2815.00
2121, 2818.00
2122, 2817.00
2123, 2817.00
2124, 2818.00
2125, 2817.00
2126, 2818.00
2127, 2817.00
2128, 2820.00
2129, 2821.00
2130, 2821.00
2131, 2822.00
2132, 2820.00
2133, 2821.00
2134, 2822.00
2135, 2822.00
2136, 2823.00
2137, 2824.00
2138, 2824.00
2139, 2823.00
2140, 2824.00
2141, 2825.00
2142, 2827.00
2143, 2826.00
2144, 2828.00
2145, 2824.00
2146, 2827.00
2147, 2827.00
2148, 2829.00
2149, 2830.00
2150, 2828.00
