FW version: 24
Log Version: 3.0.3

General Info:
       Command/Macro Performed,            Timestamp,             Device ID, COM Port, UART/I2C, Test Name, Host Major, Host Minor, Host Revision, Host Git Commit
            Single_measurement,  2023_06_30_12_13_43,       Insight2_F4_xxx,    USB-C,      USB,          ,          0,          1,             1,      4031237645

Show Spectrometer Status:
l0_version, f4_version, battery_perc, battery_mVolt, accelerometer_temp, accelerometer_x, accelerometer_y, accelerometer_z, compass_temp, compass_x, compass_y, compass_z, lamp_0, lamp_1, gain_0, gain_1
        17,         24,           95,          2080,               5776,           65420,           65460,           18460,            0,     65484,     65462,     65532,   3276,   3276,      1,      1

Temperature Statistic Info:
NTC AVG [°C], NTC2 AVG [°C]
      37.897,        37.612

Statistic Info:
M1:  num,      min,      max,   median,      AVG,      STD,M2:  num,      min,      max,   median,      AVG,      STD
     301,  1886.00,  2138.00,  1943.00,  1969.72,  79.0245,     401,  2566.00,  2718.00,  2646.00,  2642.83,  51.7434,

Measurements:
Wavelength, Data Amplitude
1350, 1919.00
1351, 1918.00
1352, 1918.00
1353, 1917.00
1354, 1916.00
1355, 1915.00
1356, 1916.00
1357, 1915.00
1358, 1915.00
1359, 1914.00
1360, 1913.00
1361, 1913.00
1362, 1913.00
1363, 1911.00
1364, 1910.00
1365, 1910.00
1366, 1908.00
1367, 1908.00
1368, 1907.00
1369, 1905.00
1370, 1905.00
1371, 1904.00
1372, 1903.00
1373, 1902.00
1374, 1902.00
1375, 1900.00
1376, 1899.00
1377, 1898.00
1378, 1898.00
1379, 1897.00
1380, 1896.00
1381, 1896.00
1382, 1895.00
1383, 1894.00
1384, 1895.00
1385, 1893.00
1386, 1893.00
1387, 1892.00
1388, 1892.00
1389, 1892.00
1390, 1891.00
1391, 1891.00
1392, 1890.00
1393, 1890.00
1394, 1888.00
1395, 1889.00
1396, 1890.00
1397, 1888.00
1398, 1888.00
1399, 1888.00
1400, 1888.00
1401, 1887.00
1402, 1887.00
1403, 1887.00
1404, 1887.00
1405, 1887.00
1406, 1887.00
1407, 1887.00
1408, 1887.00
1409, 1886.00
1410, 1887.00
1411, 1887.00
1412, 1887.00
1413, 1886.00
1414, 1886.00
1415, 1886.00
1416, 1887.00
1417, 1887.00
1418, 1887.00
1419, 1887.00
1420, 1886.00
1421, 1886.00
1422, 1887.00
1423, 1887.00
1424, 1887.00
1425, 1887.00
1426, 1888.00
1427, 1887.00
1428, 1888.00
1429, 1889.00
1430, 1887.00
1431, 1889.00
1432, 1889.00
1433, 1890.00
1434, 1889.00
1435, 1890.00
1436, 1890.00
1437, 1891.00
1438, 1892.00
1439, 1892.00
1440, 1893.00
1441, 1893.00
1442, 1894.00
1443, 1894.00
1444, 1894.00
1445, 1895.00
1446, 1895.00
1447, 1895.00
1448, 1897.00
1449, 1898.00
1450, 1899.00
1451, 1899.00
1452, 1899.00
1453, 1900.00
1454, 1902.00
1455, 1901.00
1456, 1902.00
1457, 1902.00
1458, 1903.00
1459, 1903.00
1460, 1904.00
1461, 1905.00
1462, 1905.00
1463, 1907.00
1464, 1907.00
1465, 1908.00
1466, 1910.00
1467, 1910.00
1468, 1910.00
1469, 1911.00
1470, 1913.00
1471, 1913.00
1472, 1914.00
1473, 1915.00
1474, 1916.00
1475, 1917.00
1476, 1917.00
1477, 1919.00
1478, 1919.00
1479, 1921.00
1480, 1922.00
1481, 1923.00
1482, 1925.00
1483, 1925.00
1484, 1926.00
1485, 1927.00
1486, 1928.00
1487, 1928.00
1488, 1931.00
1489, 1930.00
1490, 1932.00
1491, 1932.00
1492, 1934.00
1493, 1937.00
1494, 1937.00
1495, 1938.00
1496, 1939.00
1497, 1940.00
1498, 1941.00
1499, 1941.00
1500, 1943.00
1501, 1944.00
1502, 1944.00
1503, 1945.00
1504, 1947.00
1505, 1947.00
1506, 1948.00
1507, 1949.00
1508, 1950.00
1509, 1952.00
1510, 1953.00
1511, 1954.00
1512, 1955.00
1513, 1957.00
1514, 1957.00
1515, 1958.00
1516, 1959.00
1517, 1961.00
1518, 1961.00
1519, 1964.00
1520, 1965.00
1521, 1966.00
1522, 1967.00
1523, 1967.00
1524, 1969.00
1525, 1970.00
1526, 1971.00
1527, 1973.00
1528, 1973.00
1529, 1975.00
1530, 1976.00
1531, 1977.00
1532, 1979.00
1533, 1981.00
1534, 1981.00
1535, 1982.00
1536, 1983.00
1537, 1983.00
1538, 1987.00
1539, 1987.00
1540, 1988.00
1541, 1989.00
1542, 1991.00
1543, 1992.00
1544, 1993.00
1545, 1994.00
1546, 1995.00
1547, 1997.00
1548, 1998.00
1549, 1999.00
1550, 2000.00
1551, 2002.00
1552, 2002.00
1553, 2004.00
1554, 2006.00
1555, 2007.00
1556, 2009.00
1557, 2010.00
1558, 2012.00
1559, 2013.00
1560, 2014.00
1561, 2016.00
1562, 2017.00
1563, 2019.00
1564, 2020.00
1565, 2021.00
1566, 2023.00
1567, 2025.00
1568, 2025.00
1569, 2028.00
1570, 2027.00
1571, 2029.00
1572, 2032.00
1573, 2033.00
1574, 2033.00
1575, 2034.00
1576, 2037.00
1577, 2037.00
1578, 2039.00
1579, 2040.00
1580, 2042.00
1581, 2043.00
1582, 2043.00
1583, 2046.00
1584, 2046.00
1585, 2048.00
1586, 2050.00
1587, 2051.00
1588, 2052.00
1589, 2053.00
1590, 2054.00
1591, 2055.00
1592, 2057.00
1593, 2057.00
1594, 2058.00
1595, 2060.00
1596, 2061.00
1597, 2063.00
1598, 2065.00
1599, 2066.00
1600, 2066.00
1601, 2067.00
1602, 2069.00
1603, 2070.00
1604, 2072.00
1605, 2072.00
1606, 2074.00
1607, 2076.00
1608, 2077.00
1609, 2079.00
1610, 2080.00
1611, 2082.00
1612, 2084.00
1613, 2085.00
1614, 2088.00
1615, 2088.00
1616, 2089.00
1617, 2091.00
1618, 2093.00
1619, 2096.00
1620, 2097.00
1621, 2097.00
1622, 2099.00
1623, 2102.00
1624, 2102.00
1625, 2104.00
1626, 2105.00
1627, 2107.00
1628, 2109.00
1629, 2110.00
1630, 2112.00
1631, 2113.00
1632, 2114.00
1633, 2116.00
1634, 2117.00
1635, 2120.00
1636, 2120.00
1637, 2121.00
1638, 2124.00
1639, 2124.00
1640, 2125.00
1641, 2127.00
1642, 2128.00
1643, 2129.00
1644, 2130.00
1645, 2131.00
1646, 2133.00
1647, 2135.00
1648, 2137.00
1649, 2138.00
1650, 2138.00

1750, 2715.00
1751, 2715.00
1752, 2715.00
1753, 2716.00
1754, 2717.00
1755, 2716.00
1756, 2715.00
1757, 2718.00
1758, 2715.00
1759, 2716.00
1760, 2716.00
1761, 2716.00
1762, 2714.00
1763, 2716.00
1764, 2717.00
1765, 2716.00
1766, 2717.00
1767, 2715.00
1768, 2714.00
1769, 2715.00
1770, 2714.00
1771, 2715.00
1772, 2713.00
1773, 2711.00
1774, 2711.00
1775, 2711.00
1776, 2712.00
1777, 2711.00
1778, 2710.00
1779, 2709.00
1780, 2709.00
1781, 2710.00
1782, 2708.00
1783, 2706.00
1784, 2707.00
1785, 2704.00
1786, 2705.00
1787, 2706.00
1788, 2705.00
1789, 2705.00
1790, 2705.00
1791, 2705.00
1792, 2703.00
1793, 2703.00
1794, 2704.00
1795, 2702.00
1796, 2700.00
1797, 2701.00
1798, 2701.00
1799, 2701.00
1800, 2700.00
1801, 2700.00
1802, 2700.00
1803, 2698.00
1804, 2698.00
1805, 2699.00
1806, 2697.00
1807, 2698.00
1808, 2699.00
1809, 2697.00
1810, 2698.00
1811, 2696.00
1812, 2696.00
1813, 2697.00
1814, 2695.00
1815, 2693.00
1816, 2693.00
1817, 2691.00
1818, 2692.00
1819, 2693.00
1820, 2693.00
1821, 2690.00
1822, 2689.00
1823, 2689.00
1824, 2688.00
1825, 2690.00
1826, 2687.00
1827, 2687.00
1828, 2685.00
1829, 2685.00
1830, 2684.00
1831, 2682.00
1832, 2680.00
1833, 2679.00
1834, 2679.00
1835, 2676.00
1836, 2677.00
1837, 2673.00
1838, 2672.00
1839, 2670.00
1840, 2669.00
1841, 2666.00
1842, 2665.00
1843, 2662.00
1844, 2658.00
1845, 2657.00
1846, 2657.00
1847, 2653.00
1848, 2650.00
1849, 2648.00
1850, 2646.00
1851, 2643.00
1852, 2640.00
1853, 2641.00
1854, 2637.00
1855, 2635.00
1856, 2630.00
1857, 2628.00
1858, 2626.00
1859, 2624.00
1860, 2620.00
1861, 2617.00
1862, 2616.00
1863, 2614.00
1864, 2612.00
1865, 2610.00
1866, 2609.00
1867, 2606.00
1868, 2605.00
1869, 2602.00
1870, 2601.00
1871, 2599.00
1872, 2596.00
1873, 2594.00
1874, 2592.00
1875, 2593.00
1876, 2592.00
1877, 2591.00
1878, 2587.00
1879, 2586.00
1880, 2587.00
1881, 2586.00
1882, 2584.00
1883, 2584.00
1884, 2581.00
1885, 2581.00
1886, 2579.00
1887, 2579.00
1888, 2578.00
1889, 2577.00
1890, 2577.00
1891, 2576.00
1892, 2574.00
1893, 2574.00
1894, 2575.00
1895, 2575.00
1896, 2573.00
1897, 2575.00
1898, 2571.00
1899, 2572.00
1900, 2571.00
1901, 2572.00
1902, 2569.00
1903, 2569.00
1904, 2572.00
1905, 2572.00
1906, 2569.00
1907, 2571.00
1908, 2568.00
1909, 2571.00
1910, 2568.00
1911, 2569.00
1912, 2569.00
1913, 2569.00
1914, 2569.00
1915, 2568.00
1916, 2568.00
1917, 2567.00
1918, 2567.00
1919, 2570.00
1920, 2569.00
1921, 2567.00
1922, 2570.00
1923, 2569.00
1924, 2568.00
1925, 2568.00
1926, 2567.00
1927, 2566.00
1928, 2568.00
1929, 2568.00
1930, 2568.00
1931, 2567.00
1932, 2569.00
1933, 2568.00
1934, 2568.00
1935, 2569.00
1936, 2568.00
1937, 2569.00
1938, 2570.00
1939, 2572.00
1940, 2572.00
1941, 2572.00
1942, 2570.00
1943, 2572.00
1944, 2572.00
1945, 2571.00
1946, 2572.00
1947, 2574.00
1948, 2573.00
1949, 2573.00
1950, 2575.00
1951, 2574.00
1952, 2575.00
1953, 2576.00
1954, 2573.00
1955, 2577.00
1956, 2577.00
1957, 2577.00
1958, 2577.00
1959, 2578.00
1960, 2579.00
1961, 2580.00
1962, 2580.00
1963, 2581.00
1964, 2582.00
1965, 2584.00
1966, 2585.00
1967, 2584.00
1968, 2584.00
1969, 2585.00
1970, 2586.00
1971, 2586.00
1972, 2587.00
1973, 2587.00
1974, 2588.00
1975, 2589.00
1976, 2591.00
1977, 2589.00
1978, 2590.00
1979, 2594.00
1980, 2593.00
1981, 2593.00
1982, 2594.00
1983, 2596.00
1984, 2595.00
1985, 2596.00
1986, 2599.00
1987, 2597.00
1988, 2600.00
1989, 2598.00
1990, 2600.00
1991, 2600.00
1992, 2603.00
1993, 2604.00
1994, 2603.00
1995, 2603.00
1996, 2605.00
1997, 2605.00
1998, 2608.00
1999, 2608.00
2000, 2608.00
2001, 2609.00
2002, 2610.00
2003, 2609.00
2004, 2609.00
2005, 2611.00
2006, 2613.00
2007, 2612.00
2008, 2614.00
2009, 2613.00
2010, 2615.00
2011, 2614.00
2012, 2616.00
2013, 2616.00
2014, 2617.00
2015, 2618.00
2016, 2617.00
2017, 2618.00
2018, 2621.00
2019, 2619.00
2020, 2622.00
2021, 2623.00
2022, 2622.00
2023, 2625.00
2024, 2623.00
2025, 2624.00
2026, 2626.00
2027, 2625.00
2028, 2626.00
2029, 2628.00
2030, 2628.00
2031, 2630.00
2032, 2629.00
2033, 2629.00
2034, 2632.00
2035, 2633.00
2036, 2632.00
2037, 2636.00
2038, 2636.00
2039, 2637.00
2040, 2636.00
2041, 2639.00
2042, 2638.00
2043, 2637.00
2044, 2641.00
2045, 2640.00
2046, 2642.00
2047, 2642.00
2048, 2643.00
2049, 2644.00
2050, 2645.00
2051, 2648.00
2052, 2649.00
2053, 2649.00
2054, 2650.00
2055, 2652.00
2056, 2651.00
2057, 2654.00
2058, 2652.00
2059, 2654.00
2060, 2656.00
2061, 2656.00
2062, 2658.00
2063, 2659.00
2064, 2659.00
2065, 2662.00
2066, 2661.00
2067, 2662.00
2068, 2665.00
2069, 2665.00
2070, 2665.00
2071, 2667.00
2072, 2667.00
2073, 2667.00
2074, 2668.00
2075, 2669.00
2076, 2670.00
2077, 2671.00
2078, 2671.00
2079, 2672.00
2080, 2674.00
2081, 2675.00
2082, 2677.00
2083, 2677.00
2084, 2677.00
2085, 2678.00
2086, 2679.00
2087, 2681.00
2088, 2679.00
2089, 2680.00
2090, 2681.00
2091, 2683.00
2092, 2683.00
2093, 2685.00
2094, 2685.00
2095, 2684.00
2096, 2685.00
2097, 2687.00
2098, 2686.00
2099, 2688.00
2100, 2688.00
2101, 2689.00
2102, 2689.00
2103, 2689.00
2104, 2690.00
2105, 2692.00
2106, 2691.00
2107, 2691.00
2108, 2691.00
2109, 2691.00
2110, 2690.00
2111, 2692.00
2112, 2694.00
2113, 2692.00
2114, 2693.00
2115, 2694.00
2116, 2693.00
2117, 2696.00
2118, 2695.00
2119, 2697.00
2120, 2697.00
2121, 2694.00
2122, 2695.00
2123, 2697.00
2124, 2695.00
2125, 2699.00
2126, 2698.00
2127, 2699.00
2128, 2697.00
2129, 2698.00
2130, 2699.00
2131, 2700.00
2132, 2699.00
2133, 2699.00
2134, 2699.00
2135, 2699.00
2136, 2700.00
2137, 2700.00
2138, 2702.00
2139, 2701.00
2140, 2699.00
2141, 2703.00
2142, 2701.00
2143, 2699.00
2144, 2699.00
2145, 2703.00
2146, 2701.00
2147, 2705.00
2148, 2704.00
2149, 2701.00
2150, 2702.00
