FW version: 24
Log Version: 3.0.3

General Info:
       Command/Macro Performed,            Timestamp,             Device ID, COM Port, UART/I2C, Test Name, Host Major, Host Minor, Host Revision, Host Git Commit
            Single_measurement,  2023_07_11_11_38_12,       Insight2_F4_xxx,    USB-C,      USB,          ,          0,          1,             1,      4031237645

Show Spectrometer Status:
l0_version, f4_version, battery_perc, battery_mVolt, accelerometer_temp, accelerometer_x, accelerometer_y, accelerometer_z, compass_temp, compass_x, compass_y, compass_z, lamp_0, lamp_1, gain_0, gain_1
        17,         24,           50,          1906,               7008,           65236,            1220,           18900,            0,     65532,     65476,     18908,   3276,   3276,      1,      1

Temperature Statistic Info:
NTC AVG [°C], NTC2 AVG [°C]
      42.343,        41.980

Statistic Info:
M1:  num,      min,      max,   median,      AVG,      STD,M2:  num,      min,      max,   median,      AVG,      STD
     301,  2708.00,  3114.00,  2797.00,  2842.76, 126.4722,     401,  3408.00,  3646.00,  3513.00,  3516.04,  78.5046,

Measurements:
Wavelength, Data Amplitude
1350, 2775.00
1351, 2774.00
1352, 2773.00
1353, 2773.00
1354, 2771.00
1355, 2768.00
1356, 2768.00
1357, 2766.00
1358, 2764.00
1359, 2763.00
1360, 2761.00
1361, 2760.00
1362, 2759.00
1363, 2757.00
1364, 2755.00
1365, 2753.00
1366, 2751.00
1367, 2749.00
1368, 2749.00
1369, 2745.00
1370, 2744.00
1371, 2743.00
1372, 2740.00
1373, 2738.00
1374, 2739.00
1375, 2735.00
1376, 2733.00
1377, 2732.00
1378, 2730.00
1379, 2730.00
1380, 2728.00
1381, 2727.00
1382, 2726.00
1383, 2725.00
1384, 2723.00
1385, 2723.00
1386, 2720.00
1387, 2720.00
1388, 2719.00
1389, 2720.00
1390, 2719.00
1391, 2717.00
1392, 2717.00
1393, 2716.00
1394, 2715.00
1395, 2715.00
1396, 2714.00
1397, 2713.00
1398, 2714.00
1399, 2713.00
1400, 2713.00
1401, 2713.00
1402, 2713.00
1403, 2711.00
1404, 2713.00
1405, 2711.00
1406, 2711.00
1407, 2709.00
1408, 2709.00
1409, 2709.00
1410, 2711.00
1411, 2708.00
1412, 2709.00
1413, 2708.00
1414, 2710.00
1415, 2709.00
1416, 2709.00
1417, 2710.00
1418, 2708.00
1419, 2709.00
1420, 2709.00
1421, 2709.00
1422, 2710.00
1423, 2709.00
1424, 2710.00
1425, 2710.00
1426, 2711.00
1427, 2710.00
1428, 2711.00
1429, 2711.00
1430, 2712.00
1431, 2712.00
1432, 2713.00
1433, 2714.00
1434, 2715.00
1435, 2715.00
1436, 2715.00
1437, 2717.00
1438, 2717.00
1439, 2719.00
1440, 2718.00
1441, 2720.00
1442, 2720.00
1443, 2720.00
1444, 2721.00
1445, 2722.00
1446, 2722.00
1447, 2723.00
1448, 2724.00
1449, 2724.00
1450, 2727.00
1451, 2727.00
1452, 2726.00
1453, 2728.00
1454, 2730.00
1455, 2730.00
1456, 2731.00
1457, 2733.00
1458, 2734.00
1459, 2734.00
1460, 2735.00
1461, 2737.00
1462, 2737.00
1463, 2740.00
1464, 2740.00
1465, 2741.00
1466, 2743.00
1467, 2745.00
1468, 2744.00
1469, 2747.00
1470, 2748.00
1471, 2750.00
1472, 2750.00
1473, 2753.00
1474, 2754.00
1475, 2755.00
1476, 2757.00
1477, 2758.00
1478, 2761.00
1479, 2761.00
1480, 2763.00
1481, 2764.00
1482, 2767.00
1483, 2768.00
1484, 2771.00
1485, 2772.00
1486, 2773.00
1487, 2775.00
1488, 2777.00
1489, 2778.00
1490, 2779.00
1491, 2780.00
1492, 2783.00
1493, 2783.00
1494, 2785.00
1495, 2789.00
1496, 2789.00
1497, 2792.00
1498, 2792.00
1499, 2795.00
1500, 2797.00
1501, 2798.00
1502, 2799.00
1503, 2801.00
1504, 2802.00
1505, 2804.00
1506, 2807.00
1507, 2807.00
1508, 2808.00
1509, 2810.00
1510, 2811.00
1511, 2813.00
1512, 2815.00
1513, 2818.00
1514, 2820.00
1515, 2821.00
1516, 2824.00
1517, 2824.00
1518, 2828.00
1519, 2829.00
1520, 2831.00
1521, 2832.00
1522, 2835.00
1523, 2837.00
1524, 2837.00
1525, 2840.00
1526, 2843.00
1527, 2845.00
1528, 2847.00
1529, 2848.00
1530, 2849.00
1531, 2852.00
1532, 2853.00
1533, 2856.00
1534, 2858.00
1535, 2861.00
1536, 2863.00
1537, 2864.00
1538, 2866.00
1539, 2868.00
1540, 2871.00
1541, 2872.00
1542, 2874.00
1543, 2877.00
1544, 2879.00
1545, 2882.00
1546, 2883.00
1547, 2886.00
1548, 2887.00
1549, 2888.00
1550, 2892.00
1551, 2894.00
1552, 2895.00
1553, 2897.00
1554, 2899.00
1555, 2902.00
1556, 2905.00
1557, 2907.00
1558, 2909.00
1559, 2911.00
1560, 2914.00
1561, 2915.00
1562, 2918.00
1563, 2919.00
1564, 2923.00
1565, 2927.00
1566, 2927.00
1567, 2929.00
1568, 2933.00
1569, 2935.00
1570, 2936.00
1571, 2938.00
1572, 2942.00
1573, 2944.00
1574, 2946.00
1575, 2948.00
1576, 2950.00
1577, 2953.00
1578, 2955.00
1579, 2955.00
1580, 2958.00
1581, 2960.00
1582, 2962.00
1583, 2965.00
1584, 2966.00
1585, 2969.00
1586, 2971.00
1587, 2972.00
1588, 2975.00
1589, 2976.00
1590, 2978.00
1591, 2979.00
1592, 2982.00
1593, 2985.00
1594, 2987.00
1595, 2989.00
1596, 2991.00
1597, 2991.00
1598, 2993.00
1599, 2998.00
1600, 2998.00
1601, 2999.00
1602, 3002.00
1603, 3004.00
1604, 3006.00
1605, 3009.00
1606, 3011.00
1607, 3014.00
1608, 3017.00
1609, 3018.00
1610, 3021.00
1611, 3023.00
1612, 3026.00
1613, 3029.00
1614, 3031.00
1615, 3035.00
1616, 3035.00
1617, 3039.00
1618, 3041.00
1619, 3043.00
1620, 3046.00
1621, 3049.00
1622, 3052.00
1623, 3053.00
1624, 3055.00
1625, 3058.00
1626, 3060.00
1627, 3063.00
1628, 3067.00
1629, 3068.00
1630, 3071.00
1631, 3074.00
1632, 3076.00
1633, 3077.00
1634, 3080.00
1635, 3082.00
1636, 3083.00
1637, 3086.00
1638, 3087.00
1639, 3091.00
1640, 3093.00
1641, 3095.00
1642, 3097.00
1643, 3099.00
1644, 3101.00
1645, 3101.00
1646, 3104.00
1647, 3107.00
1648, 3108.00
1649, 3109.00
1650, 3114.00

1750, 3643.00
1751, 3643.00
1752, 3646.00
1753, 3644.00
1754, 3642.00
1755, 3644.00
1756, 3645.00
1757, 3643.00
1758, 3643.00
1759, 3643.00
1760, 3645.00
1761, 3645.00
1762, 3641.00
1763, 3642.00
1764, 3644.00
1765, 3642.00
1766, 3642.00
1767, 3641.00
1768, 3639.00
1769, 3637.00
1770, 3638.00
1771, 3641.00
1772, 3637.00
1773, 3638.00
1774, 3637.00
1775, 3634.00
1776, 3637.00
1777, 3633.00
1778, 3635.00
1779, 3632.00
1780, 3631.00
1781, 3630.00
1782, 3630.00
1783, 3630.00
1784, 3629.00
1785, 3627.00
1786, 3626.00
1787, 3625.00
1788, 3626.00
1789, 3626.00
1790, 3625.00
1791, 3622.00
1792, 3626.00
1793, 3622.00
1794, 3621.00
1795, 3622.00
1796, 3619.00
1797, 3618.00
1798, 3618.00
1799, 3619.00
1800, 3618.00
1801, 3615.00
1802, 3617.00
1803, 3615.00
1804, 3613.00
1805, 3614.00
1806, 3610.00
1807, 3611.00
1808, 3611.00
1809, 3611.00
1810, 3610.00
1811, 3610.00
1812, 3608.00
1813, 3607.00
1814, 3605.00
1815, 3605.00
1816, 3605.00
1817, 3605.00
1818, 3600.00
1819, 3601.00
1820, 3599.00
1821, 3597.00
1822, 3598.00
1823, 3595.00
1824, 3594.00
1825, 3592.00
1826, 3590.00
1827, 3588.00
1828, 3585.00
1829, 3583.00
1830, 3582.00
1831, 3579.00
1832, 3575.00
1833, 3571.00
1834, 3570.00
1835, 3567.00
1836, 3564.00
1837, 3562.00
1838, 3558.00
1839, 3555.00
1840, 3555.00
1841, 3549.00
1842, 3547.00
1843, 3542.00
1844, 3539.00
1845, 3536.00
1846, 3531.00
1847, 3528.00
1848, 3525.00
1849, 3521.00
1850, 3517.00
1851, 3511.00
1852, 3510.00
1853, 3507.00
1854, 3503.00
1855, 3500.00
1856, 3497.00
1857, 3492.00
1858, 3487.00
1859, 3483.00
1860, 3484.00
1861, 3477.00
1862, 3475.00
1863, 3471.00
1864, 3468.00
1865, 3465.00
1866, 3463.00
1867, 3460.00
1868, 3457.00
1869, 3456.00
1870, 3450.00
1871, 3450.00
1872, 3446.00
1873, 3446.00
1874, 3444.00
1875, 3440.00
1876, 3441.00
1877, 3438.00
1878, 3436.00
1879, 3435.00
1880, 3434.00
1881, 3433.00
1882, 3430.00
1883, 3430.00
1884, 3427.00
1885, 3426.00
1886, 3429.00
1887, 3426.00
1888, 3424.00
1889, 3423.00
1890, 3422.00
1891, 3421.00
1892, 3422.00
1893, 3420.00
1894, 3417.00
1895, 3415.00
1896, 3417.00
1897, 3419.00
1898, 3415.00
1899, 3417.00
1900, 3416.00
1901, 3415.00
1902, 3415.00
1903, 3416.00
1904, 3413.00
1905, 3413.00
1906, 3413.00
1907, 3413.00
1908, 3413.00
1909, 3412.00
1910, 3412.00
1911, 3411.00
1912, 3410.00
1913, 3410.00
1914, 3410.00
1915, 3408.00
1916, 3409.00
1917, 3409.00
1918, 3411.00
1919, 3411.00
1920, 3409.00
1921, 3410.00
1922, 3408.00
1923, 3408.00
1924, 3408.00
1925, 3409.00
1926, 3408.00
1927, 3408.00
1928, 3409.00
1929, 3408.00
1930, 3410.00
1931, 3410.00
1932, 3412.00
1933, 3411.00
1934, 3411.00
1935, 3411.00
1936, 3412.00
1937, 3410.00
1938, 3410.00
1939, 3411.00
1940, 3411.00
1941, 3413.00
1942, 3411.00
1943, 3411.00
1944, 3412.00
1945, 3413.00
1946, 3413.00
1947, 3413.00
1948, 3416.00
1949, 3417.00
1950, 3416.00
1951, 3417.00
1952, 3417.00
1953, 3417.00
1954, 3420.00
1955, 3419.00
1956, 3420.00
1957, 3421.00
1958, 3421.00
1959, 3419.00
1960, 3422.00
1961, 3423.00
1962, 3424.00
1963, 3424.00
1964, 3426.00
1965, 3426.00
1966, 3427.00
1967, 3428.00
1968, 3429.00
1969, 3431.00
1970, 3432.00
1971, 3433.00
1972, 3434.00
1973, 3435.00
1974, 3435.00
1975, 3437.00
1976, 3435.00
1977, 3439.00
1978, 3439.00
1979, 3440.00
1980, 3439.00
1981, 3440.00
1982, 3441.00
1983, 3443.00
1984, 3445.00
1985, 3445.00
1986, 3443.00
1987, 3448.00
1988, 3449.00
1989, 3447.00
1990, 3451.00
1991, 3451.00
1992, 3453.00
1993, 3453.00
1994, 3455.00
1995, 3455.00
1996, 3455.00
1997, 3454.00
1998, 3459.00
1999, 3459.00
2000, 3458.00
2001, 3462.00
2002, 3461.00
2003, 3461.00
2004, 3463.00
2005, 3461.00
2006, 3464.00
2007, 3467.00
2008, 3468.00
2009, 3469.00
2010, 3468.00
2011, 3470.00
2012, 3470.00
2013, 3469.00
2014, 3472.00
2015, 3471.00
2016, 3473.00
2017, 3477.00
2018, 3478.00
2019, 3477.00
2020, 3480.00
2021, 3479.00
2022, 3480.00
2023, 3482.00
2024, 3483.00
2025, 3481.00
2026, 3485.00
2027, 3485.00
2028, 3485.00
2029, 3488.00
2030, 3487.00
2031, 3488.00
2032, 3491.00
2033, 3491.00
2034, 3491.00
2035, 3495.00
2036, 3493.00
2037, 3494.00
2038, 3496.00
2039, 3499.00
2040, 3498.00
2041, 3498.00
2042, 3501.00
2043, 3501.00
2044, 3503.00
2045, 3503.00
2046, 3505.00
2047, 3507.00
2048, 3507.00
2049, 3511.00
2050, 3513.00
2051, 3512.00
2052, 3515.00
2053, 3517.00
2054, 3517.00
2055, 3517.00
2056, 3519.00
2057, 3520.00
2058, 3522.00
2059, 3524.00
2060, 3525.00
2061, 3527.00
2062, 3528.00
2063, 3528.00
2064, 3529.00
2065, 3533.00
2066, 3534.00
2067, 3536.00
2068, 3535.00
2069, 3535.00
2070, 3537.00
2071, 3539.00
2072, 3541.00
2073, 3542.00
2074, 3547.00
2075, 3544.00
2076, 3546.00
2077, 3547.00
2078, 3548.00
2079, 3550.00
2080, 3552.00
2081, 3552.00
2082, 3553.00
2083, 3557.00
2084, 3555.00
2085, 3556.00
2086, 3559.00
2087, 3559.00
2088, 3559.00
2089, 3559.00
2090, 3563.00
2091, 3563.00
2092, 3563.00
2093, 3565.00
2094, 3565.00
2095, 3565.00
2096, 3566.00
2097, 3568.00
2098, 3568.00
2099, 3568.00
2100, 3571.00
2101, 3571.00
2102, 3573.00
2103, 3573.00
2104, 3573.00
2105, 3575.00
2106, 3575.00
2107, 3575.00
2108, 3576.00
2109, 3576.00
2110, 3579.00
2111, 3577.00
2112, 3577.00
2113, 3578.00
2114, 3580.00
2115, 3582.00
2116, 3581.00
2117, 3579.00
2118, 3582.00
2119, 3583.00
2120, 3581.00
2121, 3584.00
2122, 3582.00
2123, 3584.00
2124, 3585.00
2125, 3586.00
2126, 3585.00
2127, 3586.00
2128, 3587.00
2129, 3586.00
2130, 3588.00
2131, 3591.00
2132, 3589.00
2133, 3590.00
2134, 3589.00
2135, 3589.00
2136, 3590.00
2137, 3595.00
2138, 3593.00
2139, 3593.00
2140, 3589.00
2141, 3594.00
2142, 3595.00
2143, 3595.00
2144, 3596.00
2145, 3597.00
2146, 3595.00
2147, 3598.00
2148, 3598.00
2149, 3597.00
2150, 3596.00
