FW version: 24
Log Version: 3.0.3

General Info:
       Command/Macro Performed,            Timestamp,             Device ID, COM Port, UART/I2C, Test Name, Host Major, Host Minor, Host Revision, Host Git Commit
            Single_measurement,  2023_07_11_11_37_44,       Insight2_F4_xxx,    USB-C,      USB,          ,          0,          1,             1,      4031237645

Show Spectrometer Status:
l0_version, f4_version, battery_perc, battery_mVolt, accelerometer_temp, accelerometer_x, accelerometer_y, accelerometer_z, compass_temp, compass_x, compass_y, compass_z, lamp_0, lamp_1, gain_0, gain_1
        17,         24,           50,          1910,               7008,           65244,            1164,           18736,            0,     65533,     65486,     18813,   2866,   2866,      1,      1

Temperature Statistic Info:
NTC AVG [°C], NTC2 AVG [°C]
      42.131,        41.774

Statistic Info:
M1:  num,      min,      max,   median,      AVG,      STD,M2:  num,      min,      max,   median,      AVG,      STD
     301,  2106.00,  2432.00,  2176.00,  2213.71, 102.0287,     401,  2745.00,  2937.00,  2832.00,  2833.93,  63.7841,

Measurements:
Wavelength, Data Amplitude
1350, 2156.00
1351, 2155.00
1352, 2154.00
1353, 2153.00
1354, 2151.00
1355, 2152.00
1356, 2151.00
1357, 2149.00
1358, 2149.00
1359, 2147.00
1360, 2147.00
1361, 2145.00
1362, 2144.00
1363, 2141.00
1364, 2141.00
1365, 2140.00
1366, 2139.00
1367, 2138.00
1368, 2136.00
1369, 2133.00
1370, 2133.00
1371, 2132.00
1372, 2129.00
1373, 2129.00
1374, 2127.00
1375, 2127.00
1376, 2125.00
1377, 2125.00
1378, 2123.00
1379, 2122.00
1380, 2121.00
1381, 2119.00
1382, 2118.00
1383, 2117.00
1384, 2118.00
1385, 2115.00
1386, 2115.00
1387, 2114.00
1388, 2114.00
1389, 2113.00
1390, 2113.00
1391, 2113.00
1392, 2112.00
1393, 2112.00
1394, 2112.00
1395, 2110.00
1396, 2111.00
1397, 2110.00
1398, 2110.00
1399, 2109.00
1400, 2108.00
1401, 2109.00
1402, 2107.00
1403, 2107.00
1404, 2107.00
1405, 2108.00
1406, 2107.00
1407, 2107.00
1408, 2107.00
1409, 2107.00
1410, 2107.00
1411, 2107.00
1412, 2107.00
1413, 2107.00
1414, 2106.00
1415, 2107.00
1416, 2107.00
1417, 2106.00
1418, 2106.00
1419, 2107.00
1420, 2106.00
1421, 2107.00
1422, 2106.00
1423, 2108.00
1424, 2108.00
1425, 2107.00
1426, 2107.00
1427, 2108.00
1428, 2107.00
1429, 2108.00
1430, 2109.00
1431, 2109.00
1432, 2109.00
1433, 2109.00
1434, 2111.00
1435, 2112.00
1436, 2111.00
1437, 2113.00
1438, 2112.00
1439, 2113.00
1440, 2114.00
1441, 2114.00
1442, 2115.00
1443, 2115.00
1444, 2117.00
1445, 2116.00
1446, 2117.00
1447, 2118.00
1448, 2118.00
1449, 2119.00
1450, 2120.00
1451, 2121.00
1452, 2121.00
1453, 2123.00
1454, 2124.00
1455, 2123.00
1456, 2125.00
1457, 2126.00
1458, 2127.00
1459, 2126.00
1460, 2127.00
1461, 2129.00
1462, 2130.00
1463, 2131.00
1464, 2133.00
1465, 2132.00
1466, 2133.00
1467, 2135.00
1468, 2136.00
1469, 2137.00
1470, 2138.00
1471, 2139.00
1472, 2140.00
1473, 2141.00
1474, 2142.00
1475, 2144.00
1476, 2146.00
1477, 2147.00
1478, 2148.00
1479, 2149.00
1480, 2150.00
1481, 2152.00
1482, 2152.00
1483, 2154.00
1484, 2155.00
1485, 2156.00
1486, 2157.00
1487, 2160.00
1488, 2161.00
1489, 2162.00
1490, 2163.00
1491, 2164.00
1492, 2166.00
1493, 2168.00
1494, 2169.00
1495, 2168.00
1496, 2171.00
1497, 2173.00
1498, 2174.00
1499, 2175.00
1500, 2176.00
1501, 2177.00
1502, 2178.00
1503, 2181.00
1504, 2180.00
1505, 2184.00
1506, 2184.00
1507, 2184.00
1508, 2188.00
1509, 2188.00
1510, 2189.00
1511, 2191.00
1512, 2193.00
1513, 2194.00
1514, 2195.00
1515, 2196.00
1516, 2197.00
1517, 2200.00
1518, 2201.00
1519, 2202.00
1520, 2204.00
1521, 2206.00
1522, 2208.00
1523, 2209.00
1524, 2210.00
1525, 2213.00
1526, 2214.00
1527, 2216.00
1528, 2217.00
1529, 2218.00
1530, 2221.00
1531, 2221.00
1532, 2223.00
1533, 2224.00
1534, 2226.00
1535, 2228.00
1536, 2229.00
1537, 2230.00
1538, 2232.00
1539, 2234.00
1540, 2236.00
1541, 2237.00
1542, 2239.00
1543, 2241.00
1544, 2242.00
1545, 2243.00
1546, 2246.00
1547, 2248.00
1548, 2249.00
1549, 2250.00
1550, 2253.00
1551, 2255.00
1552, 2257.00
1553, 2259.00
1554, 2259.00
1555, 2262.00
1556, 2264.00
1557, 2265.00
1558, 2267.00
1559, 2269.00
1560, 2270.00
1561, 2272.00
1562, 2274.00
1563, 2277.00
1564, 2279.00
1565, 2280.00
1566, 2282.00
1567, 2284.00
1568, 2286.00
1569, 2289.00
1570, 2289.00
1571, 2291.00
1572, 2293.00
1573, 2295.00
1574, 2297.00
1575, 2299.00
1576, 2299.00
1577, 2302.00
1578, 2304.00
1579, 2306.00
1580, 2308.00
1581, 2308.00
1582, 2310.00
1583, 2312.00
1584, 2314.00
1585, 2315.00
1586, 2315.00
1587, 2318.00
1588, 2320.00
1589, 2321.00
1590, 2321.00
1591, 2323.00
1592, 2327.00
1593, 2327.00
1594, 2329.00
1595, 2331.00
1596, 2332.00
1597, 2334.00
1598, 2337.00
1599, 2338.00
1600, 2339.00
1601, 2341.00
1602, 2342.00
1603, 2345.00
1604, 2345.00
1605, 2347.00
1606, 2350.00
1607, 2351.00
1608, 2353.00
1609, 2355.00
1610, 2357.00
1611, 2358.00
1612, 2362.00
1613, 2362.00
1614, 2365.00
1615, 2368.00
1616, 2370.00
1617, 2372.00
1618, 2374.00
1619, 2377.00
1620, 2378.00
1621, 2379.00
1622, 2381.00
1623, 2384.00
1624, 2386.00
1625, 2389.00
1626, 2390.00
1627, 2393.00
1628, 2394.00
1629, 2396.00
1630, 2397.00
1631, 2400.00
1632, 2402.00
1633, 2404.00
1634, 2405.00
1635, 2407.00
1636, 2409.00
1637, 2410.00
1638, 2412.00
1639, 2413.00
1640, 2416.00
1641, 2417.00
1642, 2419.00
1643, 2420.00
1644, 2422.00
1645, 2423.00
1646, 2425.00
1647, 2427.00
1648, 2427.00
1649, 2430.00
1650, 2432.00

1750, 2936.00
1751, 2935.00
1752, 2934.00
1753, 2936.00
1754, 2935.00
1755, 2934.00
1756, 2936.00
1757, 2937.00
1758, 2935.00
1759, 2933.00
1760, 2935.00
1761, 2934.00
1762, 2936.00
1763, 2934.00
1764, 2933.00
1765, 2933.00
1766, 2934.00
1767, 2933.00
1768, 2932.00
1769, 2932.00
1770, 2931.00
1771, 2931.00
1772, 2930.00
1773, 2932.00
1774, 2929.00
1775, 2929.00
1776, 2930.00
1777, 2928.00
1778, 2929.00
1779, 2928.00
1780, 2927.00
1781, 2926.00
1782, 2925.00
1783, 2923.00
1784, 2926.00
1785, 2925.00
1786, 2923.00
1787, 2925.00
1788, 2920.00
1789, 2921.00
1790, 2920.00
1791, 2920.00
1792, 2920.00
1793, 2919.00
1794, 2919.00
1795, 2917.00
1796, 2915.00
1797, 2914.00
1798, 2914.00
1799, 2914.00
1800, 2915.00
1801, 2915.00
1802, 2914.00
1803, 2914.00
1804, 2913.00
1805, 2911.00
1806, 2913.00
1807, 2909.00
1808, 2911.00
1809, 2909.00
1810, 2909.00
1811, 2905.00
1812, 2906.00
1813, 2907.00
1814, 2907.00
1815, 2907.00
1816, 2905.00
1817, 2904.00
1818, 2902.00
1819, 2899.00
1820, 2898.00
1821, 2899.00
1822, 2898.00
1823, 2896.00
1824, 2895.00
1825, 2897.00
1826, 2891.00
1827, 2890.00
1828, 2889.00
1829, 2889.00
1830, 2885.00
1831, 2884.00
1832, 2882.00
1833, 2879.00
1834, 2878.00
1835, 2876.00
1836, 2875.00
1837, 2870.00
1838, 2869.00
1839, 2867.00
1840, 2862.00
1841, 2862.00
1842, 2859.00
1843, 2854.00
1844, 2852.00
1845, 2850.00
1846, 2846.00
1847, 2844.00
1848, 2841.00
1849, 2836.00
1850, 2832.00
1851, 2832.00
1852, 2831.00
1853, 2826.00
1854, 2821.00
1855, 2818.00
1856, 2819.00
1857, 2814.00
1858, 2810.00
1859, 2807.00
1860, 2807.00
1861, 2802.00
1862, 2800.00
1863, 2797.00
1864, 2796.00
1865, 2790.00
1866, 2791.00
1867, 2787.00
1868, 2786.00
1869, 2783.00
1870, 2781.00
1871, 2781.00
1872, 2774.00
1873, 2777.00
1874, 2774.00
1875, 2774.00
1876, 2774.00
1877, 2770.00
1878, 2768.00
1879, 2769.00
1880, 2766.00
1881, 2763.00
1882, 2766.00
1883, 2763.00
1884, 2761.00
1885, 2761.00
1886, 2760.00
1887, 2759.00
1888, 2759.00
1889, 2757.00
1890, 2757.00
1891, 2756.00
1892, 2756.00
1893, 2757.00
1894, 2757.00
1895, 2755.00
1896, 2753.00
1897, 2754.00
1898, 2753.00
1899, 2753.00
1900, 2751.00
1901, 2753.00
1902, 2751.00
1903, 2752.00
1904, 2750.00
1905, 2750.00
1906, 2750.00
1907, 2750.00
1908, 2750.00
1909, 2748.00
1910, 2749.00
1911, 2747.00
1912, 2749.00
1913, 2747.00
1914, 2747.00
1915, 2747.00
1916, 2747.00
1917, 2748.00
1918, 2745.00
1919, 2746.00
1920, 2745.00
1921, 2748.00
1922, 2745.00
1923, 2747.00
1924, 2746.00
1925, 2746.00
1926, 2745.00
1927, 2746.00
1928, 2746.00
1929, 2747.00
1930, 2746.00
1931, 2746.00
1932, 2747.00
1933, 2748.00
1934, 2747.00
1935, 2748.00
1936, 2748.00
1937, 2747.00
1938, 2748.00
1939, 2749.00
1940, 2748.00
1941, 2749.00
1942, 2748.00
1943, 2749.00
1944, 2749.00
1945, 2751.00
1946, 2753.00
1947, 2750.00
1948, 2752.00
1949, 2753.00
1950, 2751.00
1951, 2753.00
1952, 2753.00
1953, 2752.00
1954, 2754.00
1955, 2756.00
1956, 2754.00
1957, 2757.00
1958, 2757.00
1959, 2757.00
1960, 2758.00
1961, 2759.00
1962, 2758.00
1963, 2761.00
1964, 2761.00
1965, 2760.00
1966, 2762.00
1967, 2762.00
1968, 2763.00
1969, 2764.00
1970, 2765.00
1971, 2766.00
1972, 2767.00
1973, 2767.00
1974, 2769.00
1975, 2769.00
1976, 2771.00
1977, 2770.00
1978, 2772.00
1979, 2770.00
1980, 2773.00
1981, 2773.00
1982, 2775.00
1983, 2776.00
1984, 2775.00
1985, 2776.00
1986, 2777.00
1987, 2777.00
1988, 2778.00
1989, 2778.00
1990, 2781.00
1991, 2781.00
1992, 2782.00
1993, 2780.00
1994, 2783.00
1995, 2782.00
1996, 2787.00
1997, 2785.00
1998, 2788.00
1999, 2787.00
2000, 2789.00
2001, 2790.00
2002, 2788.00
2003, 2789.00
2004, 2790.00
2005, 2792.00
2006, 2791.00
2007, 2793.00
2008, 2793.00
2009, 2795.00
2010, 2796.00
2011, 2796.00
2012, 2797.00
2013, 2797.00
2014, 2798.00
2015, 2801.00
2016, 2799.00
2017, 2801.00
2018, 2801.00
2019, 2802.00
2020, 2801.00
2021, 2805.00
2022, 2804.00
2023, 2804.00
2024, 2807.00
2025, 2807.00
2026, 2809.00
2027, 2808.00
2028, 2809.00
2029, 2810.00
2030, 2811.00
2031, 2813.00
2032, 2814.00
2033, 2815.00
2034, 2817.00
2035, 2815.00
2036, 2818.00
2037, 2815.00
2038, 2818.00
2039, 2818.00
2040, 2819.00
2041, 2822.00
2042, 2823.00
2043, 2822.00
2044, 2824.00
2045, 2823.00
2046, 2825.00
2047, 2827.00
2048, 2829.00
2049, 2831.00
2050, 2831.00
2051, 2832.00
2052, 2834.00
2053, 2834.00
2054, 2834.00
2055, 2835.00
2056, 2837.00
2057, 2838.00
2058, 2842.00
2059, 2841.00
2060, 2840.00
2061, 2844.00
2062, 2843.00
2063, 2845.00
2064, 2848.00
2065, 2847.00
2066, 2849.00
2067, 2849.00
2068, 2851.00
2069, 2853.00
2070, 2854.00
2071, 2855.00
2072, 2855.00
2073, 2858.00
2074, 2859.00
2075, 2855.00
2076, 2859.00
2077, 2860.00
2078, 2863.00
2079, 2861.00
2080, 2864.00
2081, 2865.00
2082, 2865.00
2083, 2865.00
2084, 2866.00
2085, 2867.00
2086, 2869.00
2087, 2868.00
2088, 2870.00
2089, 2872.00
2090, 2873.00
2091, 2874.00
2092, 2876.00
2093, 2874.00
2094, 2877.00
2095, 2876.00
2096, 2878.00
2097, 2880.00
2098, 2879.00
2099, 2881.00
2100, 2880.00
2101, 2879.00
2102, 2881.00
2103, 2883.00
2104, 2882.00
2105, 2883.00
2106, 2882.00
2107, 2884.00
2108, 2884.00
2109, 2885.00
2110, 2885.00
2111, 2886.00
2112, 2889.00
2113, 2888.00
2114, 2888.00
2115, 2889.00
2116, 2888.00
2117, 2889.00
2118, 2889.00
2119, 2891.00
2120, 2890.00
2121, 2890.00
2122, 2891.00
2123, 2892.00
2124, 2894.00
2125, 2893.00
2126, 2893.00
2127, 2893.00
2128, 2894.00
2129, 2894.00
2130, 2893.00
2131, 2896.00
2132, 2897.00
2133, 2897.00
2134, 2897.00
2135, 2897.00
2136, 2901.00
2137, 2896.00
2138, 2897.00
2139, 2900.00
2140, 2900.00
2141, 2899.00
2142, 2901.00
2143, 2901.00
2144, 2901.00
2145, 2901.00
2146, 2901.00
2147, 2902.00
2148, 2902.00
2149, 2902.00
2150, 2902.00
