FW version: 24
Log Version: 3.0.3

General Info:
       Command/Macro Performed,            Timestamp,             Device ID, COM Port, UART/I2C, Test Name, Host Major, Host Minor, Host Revision, Host Git Commit
            Single_measurement,  2023_07_11_11_02_47,       Insight2_F4_xxx,    USB-C,      USB,          ,          0,          1,             1,      4031237645

Show Spectrometer Status:
l0_version, f4_version, battery_perc, battery_mVolt, accelerometer_temp, accelerometer_x, accelerometer_y, accelerometer_z, compass_temp, compass_x, compass_y, compass_z, lamp_0, lamp_1, gain_0, gain_1
        17,         24,           49,          1905,               6544,           65128,            1036,           18740,            0,     65387,     65374,     18806,   2047,   2047,      1,      1

Temperature Statistic Info:
NTC AVG [°C], NTC2 AVG [°C]
      39.966,        39.646

Statistic Info:
M1:  num,      min,      max,   median,      AVG,      STD,M2:  num,      min,      max,   median,      AVG,      STD
     301,   908.00,  1060.00,   940.00,   958.87,  48.1274,     401,  1318.00,  1412.00,  1359.00,  1361.62,  31.2460,

Measurements:
Wavelength, Data Amplitude
1350, 930.00
1351, 932.00
1352, 931.00
1353, 930.00
1354, 929.00
1355, 929.00
1356, 928.00
1357, 929.00
1358, 927.00
1359, 926.00
1360, 927.00
1361, 925.00
1362, 925.00
1363, 925.00
1364, 924.00
1365, 923.00
1366, 922.00
1367, 922.00
1368, 922.00
1369, 921.00
1370, 920.00
1371, 920.00
1372, 919.00
1373, 919.00
1374, 918.00
1375, 917.00
1376, 917.00
1377, 916.00
1378, 916.00
1379, 916.00
1380, 914.00
1381, 914.00
1382, 914.00
1383, 913.00
1384, 914.00
1385, 913.00
1386, 912.00
1387, 911.00
1388, 912.00
1389, 912.00
1390, 912.00
1391, 910.00
1392, 910.00
1393, 911.00
1394, 909.00
1395, 910.00
1396, 911.00
1397, 910.00
1398, 910.00
1399, 910.00
1400, 910.00
1401, 909.00
1402, 909.00
1403, 909.00
1404, 909.00
1405, 909.00
1406, 909.00
1407, 909.00
1408, 908.00
1409, 908.00
1410, 909.00
1411, 909.00
1412, 909.00
1413, 908.00
1414, 909.00
1415, 909.00
1416, 909.00
1417, 909.00
1418, 908.00
1419, 908.00
1420, 909.00
1421, 908.00
1422, 909.00
1423, 910.00
1424, 909.00
1425, 909.00
1426, 909.00
1427, 909.00
1428, 909.00
1429, 908.00
1430, 910.00
1431, 910.00
1432, 910.00
1433, 911.00
1434, 910.00
1435, 911.00
1436, 911.00
1437, 912.00
1438, 911.00
1439, 912.00
1440, 911.00
1441, 913.00
1442, 912.00
1443, 912.00
1444, 913.00
1445, 913.00
1446, 914.00
1447, 913.00
1448, 915.00
1449, 914.00
1450, 914.00
1451, 915.00
1452, 915.00
1453, 915.00
1454, 915.00
1455, 916.00
1456, 917.00
1457, 916.00
1458, 917.00
1459, 918.00
1460, 918.00
1461, 917.00
1462, 919.00
1463, 920.00
1464, 920.00
1465, 921.00
1466, 921.00
1467, 921.00
1468, 922.00
1469, 922.00
1470, 922.00
1471, 923.00
1472, 925.00
1473, 924.00
1474, 925.00
1475, 925.00
1476, 926.00
1477, 927.00
1478, 928.00
1479, 928.00
1480, 928.00
1481, 930.00
1482, 930.00
1483, 930.00
1484, 931.00
1485, 931.00
1486, 932.00
1487, 933.00
1488, 933.00
1489, 934.00
1490, 934.00
1491, 935.00
1492, 935.00
1493, 937.00
1494, 937.00
1495, 938.00
1496, 938.00
1497, 938.00
1498, 939.00
1499, 940.00
1500, 940.00
1501, 941.00
1502, 942.00
1503, 943.00
1504, 943.00
1505, 944.00
1506, 945.00
1507, 946.00
1508, 946.00
1509, 947.00
1510, 948.00
1511, 949.00
1512, 949.00
1513, 948.00
1514, 950.00
1515, 951.00
1516, 951.00
1517, 952.00
1518, 953.00
1519, 954.00
1520, 955.00
1521, 956.00
1522, 956.00
1523, 957.00
1524, 958.00
1525, 958.00
1526, 960.00
1527, 960.00
1528, 961.00
1529, 962.00
1530, 961.00
1531, 963.00
1532, 964.00
1533, 965.00
1534, 965.00
1535, 966.00
1536, 968.00
1537, 969.00
1538, 969.00
1539, 970.00
1540, 971.00
1541, 971.00
1542, 972.00
1543, 974.00
1544, 974.00
1545, 975.00
1546, 975.00
1547, 976.00
1548, 977.00
1549, 978.00
1550, 978.00
1551, 979.00
1552, 980.00
1553, 980.00
1554, 982.00
1555, 982.00
1556, 983.00
1557, 985.00
1558, 985.00
1559, 985.00
1560, 987.00
1561, 988.00
1562, 988.00
1563, 989.00
1564, 990.00
1565, 991.00
1566, 991.00
1567, 992.00
1568, 992.00
1569, 995.00
1570, 995.00
1571, 996.00
1572, 997.00
1573, 997.00
1574, 998.00
1575, 999.00
1576, 1000.00
1577, 1000.00
1578, 1002.00
1579, 1002.00
1580, 1003.00
1581, 1003.00
1582, 1004.00
1583, 1006.00
1584, 1006.00
1585, 1006.00
1586, 1007.00
1587, 1009.00
1588, 1009.00
1589, 1009.00
1590, 1011.00
1591, 1012.00
1592, 1012.00
1593, 1013.00
1594, 1014.00
1595, 1014.00
1596, 1015.00
1597, 1015.00
1598, 1016.00
1599, 1017.00
1600, 1019.00
1601, 1019.00
1602, 1019.00
1603, 1021.00
1604, 1021.00
1605, 1022.00
1606, 1024.00
1607, 1024.00
1608, 1025.00
1609, 1026.00
1610, 1028.00
1611, 1028.00
1612, 1029.00
1613, 1030.00
1614, 1030.00
1615, 1032.00
1616, 1033.00
1617, 1032.00
1618, 1034.00
1619, 1036.00
1620, 1037.00
1621, 1038.00
1622, 1039.00
1623, 1039.00
1624, 1040.00
1625, 1041.00
1626, 1042.00
1627, 1044.00
1628, 1044.00
1629, 1045.00
1630, 1046.00
1631, 1046.00
1632, 1047.00
1633, 1048.00
1634, 1049.00
1635, 1049.00
1636, 1050.00
1637, 1051.00
1638, 1051.00
1639, 1053.00
1640, 1052.00
1641, 1054.00
1642, 1054.00
1643, 1055.00
1644, 1056.00
1645, 1057.00
1646, 1057.00
1647, 1058.00
1648, 1058.00
1649, 1057.00
1650, 1060.00

1750, 1408.00
1751, 1410.00
1752, 1412.00
1753, 1409.00
1754, 1412.00
1755, 1411.00
1756, 1410.00
1757, 1412.00
1758, 1410.00
1759, 1411.00
1760, 1411.00
1761, 1411.00
1762, 1410.00
1763, 1411.00
1764, 1410.00
1765, 1411.00
1766, 1410.00
1767, 1411.00
1768, 1410.00
1769, 1410.00
1770, 1411.00
1771, 1411.00
1772, 1409.00
1773, 1409.00
1774, 1408.00
1775, 1410.00
1776, 1407.00
1777, 1408.00
1778, 1408.00
1779, 1409.00
1780, 1409.00
1781, 1407.00
1782, 1407.00
1783, 1406.00
1784, 1407.00
1785, 1407.00
1786, 1407.00
1787, 1406.00
1788, 1405.00
1789, 1404.00
1790, 1406.00
1791, 1404.00
1792, 1404.00
1793, 1402.00
1794, 1402.00
1795, 1403.00
1796, 1404.00
1797, 1402.00
1798, 1402.00
1799, 1402.00
1800, 1401.00
1801, 1401.00
1802, 1401.00
1803, 1400.00
1804, 1401.00
1805, 1401.00
1806, 1399.00
1807, 1398.00
1808, 1401.00
1809, 1399.00
1810, 1399.00
1811, 1398.00
1812, 1397.00
1813, 1397.00
1814, 1398.00
1815, 1395.00
1816, 1395.00
1817, 1396.00
1818, 1395.00
1819, 1393.00
1820, 1395.00
1821, 1395.00
1822, 1394.00
1823, 1391.00
1824, 1389.00
1825, 1389.00
1826, 1391.00
1827, 1389.00
1828, 1389.00
1829, 1389.00
1830, 1387.00
1831, 1386.00
1832, 1384.00
1833, 1384.00
1834, 1382.00
1835, 1381.00
1836, 1381.00
1837, 1380.00
1838, 1378.00
1839, 1378.00
1840, 1377.00
1841, 1374.00
1842, 1373.00
1843, 1372.00
1844, 1371.00
1845, 1369.00
1846, 1368.00
1847, 1366.00
1848, 1364.00
1849, 1363.00
1850, 1361.00
1851, 1360.00
1852, 1357.00
1853, 1357.00
1854, 1355.00
1855, 1354.00
1856, 1353.00
1857, 1351.00
1858, 1350.00
1859, 1348.00
1860, 1346.00
1861, 1346.00
1862, 1344.00
1863, 1343.00
1864, 1340.00
1865, 1342.00
1866, 1340.00
1867, 1338.00
1868, 1339.00
1869, 1336.00
1870, 1334.00
1871, 1335.00
1872, 1333.00
1873, 1332.00
1874, 1332.00
1875, 1333.00
1876, 1331.00
1877, 1332.00
1878, 1331.00
1879, 1330.00
1880, 1330.00
1881, 1329.00
1882, 1330.00
1883, 1329.00
1884, 1327.00
1885, 1329.00
1886, 1327.00
1887, 1325.00
1888, 1326.00
1889, 1324.00
1890, 1323.00
1891, 1325.00
1892, 1322.00
1893, 1325.00
1894, 1324.00
1895, 1324.00
1896, 1323.00
1897, 1323.00
1898, 1323.00
1899, 1323.00
1900, 1322.00
1901, 1321.00
1902, 1321.00
1903, 1322.00
1904, 1321.00
1905, 1322.00
1906, 1320.00
1907, 1320.00
1908, 1322.00
1909, 1320.00
1910, 1322.00
1911, 1320.00
1912, 1321.00
1913, 1322.00
1914, 1321.00
1915, 1320.00
1916, 1320.00
1917, 1321.00
1918, 1323.00
1919, 1320.00
1920, 1319.00
1921, 1320.00
1922, 1321.00
1923, 1321.00
1924, 1319.00
1925, 1318.00
1926, 1321.00
1927, 1320.00
1928, 1318.00
1929, 1320.00
1930, 1321.00
1931, 1322.00
1932, 1320.00
1933, 1319.00
1934, 1320.00
1935, 1320.00
1936, 1320.00
1937, 1318.00
1938, 1321.00
1939, 1321.00
1940, 1321.00
1941, 1322.00
1942, 1320.00
1943, 1323.00
1944, 1322.00
1945, 1322.00
1946, 1321.00
1947, 1322.00
1948, 1323.00
1949, 1321.00
1950, 1323.00
1951, 1321.00
1952, 1322.00
1953, 1323.00
1954, 1323.00
1955, 1323.00
1956, 1324.00
1957, 1325.00
1958, 1324.00
1959, 1325.00
1960, 1325.00
1961, 1323.00
1962, 1325.00
1963, 1325.00
1964, 1326.00
1965, 1326.00
1966, 1326.00
1967, 1326.00
1968, 1328.00
1969, 1327.00
1970, 1329.00
1971, 1328.00
1972, 1328.00
1973, 1328.00
1974, 1328.00
1975, 1330.00
1976, 1329.00
1977, 1330.00
1978, 1331.00
1979, 1331.00
1980, 1332.00
1981, 1330.00
1982, 1331.00
1983, 1331.00
1984, 1332.00
1985, 1335.00
1986, 1332.00
1987, 1333.00
1988, 1334.00
1989, 1334.00
1990, 1335.00
1991, 1334.00
1992, 1335.00
1993, 1336.00
1994, 1335.00
1995, 1337.00
1996, 1337.00
1997, 1337.00
1998, 1338.00
1999, 1337.00
2000, 1337.00
2001, 1339.00
2002, 1341.00
2003, 1339.00
2004, 1338.00
2005, 1339.00
2006, 1340.00
2007, 1341.00
2008, 1343.00
2009, 1342.00
2010, 1344.00
2011, 1342.00
2012, 1342.00
2013, 1342.00
2014, 1344.00
2015, 1341.00
2016, 1343.00
2017, 1344.00
2018, 1344.00
2019, 1346.00
2020, 1344.00
2021, 1345.00
2022, 1347.00
2023, 1347.00
2024, 1348.00
2025, 1347.00
2026, 1346.00
2027, 1347.00
2028, 1348.00
2029, 1349.00
2030, 1350.00
2031, 1350.00
2032, 1348.00
2033, 1349.00
2034, 1351.00
2035, 1352.00
2036, 1352.00
2037, 1351.00
2038, 1354.00
2039, 1354.00
2040, 1352.00
2041, 1355.00
2042, 1353.00
2043, 1355.00
2044, 1355.00
2045, 1356.00
2046, 1356.00
2047, 1358.00
2048, 1357.00
2049, 1358.00
2050, 1360.00
2051, 1358.00
2052, 1359.00
2053, 1359.00
2054, 1361.00
2055, 1363.00
2056, 1363.00
2057, 1363.00
2058, 1365.00
2059, 1362.00
2060, 1363.00
2061, 1366.00
2062, 1366.00
2063, 1365.00
2064, 1366.00
2065, 1369.00
2066, 1369.00
2067, 1368.00
2068, 1368.00
2069, 1369.00
2070, 1369.00
2071, 1372.00
2072, 1373.00
2073, 1372.00
2074, 1373.00
2075, 1374.00
2076, 1372.00
2077, 1374.00
2078, 1374.00
2079, 1375.00
2080, 1374.00
2081, 1377.00
2082, 1376.00
2083, 1377.00
2084, 1377.00
2085, 1375.00
2086, 1377.00
2087, 1380.00
2088, 1380.00
2089, 1381.00
2090, 1381.00
2091, 1383.00
2092, 1381.00
2093, 1383.00
2094, 1382.00
2095, 1383.00
2096, 1383.00
2097, 1385.00
2098, 1383.00
2099, 1381.00
2100, 1384.00
2101, 1385.00
2102, 1385.00
2103, 1385.00
2104, 1387.00
2105, 1384.00
2106, 1386.00
2107, 1386.00
2108, 1387.00
2109, 1389.00
2110, 1389.00
2111, 1386.00
2112, 1387.00
2113, 1388.00
2114, 1389.00
2115, 1387.00
2116, 1389.00
2117, 1388.00
2118, 1391.00
2119, 1390.00
2120, 1389.00
2121, 1390.00
2122, 1389.00
2123, 1390.00
2124, 1392.00
2125, 1391.00
2126, 1392.00
2127, 1391.00
2128, 1394.00
2129, 1391.00
2130, 1394.00
2131, 1393.00
2132, 1393.00
2133, 1394.00
2134, 1393.00
2135, 1393.00
2136, 1395.00
2137, 1395.00
2138, 1394.00
2139, 1395.00
2140, 1394.00
2141, 1395.00
2142, 1396.00
2143, 1397.00
2144, 1398.00
2145, 1396.00
2146, 1395.00
2147, 1396.00
2148, 1397.00
2149, 1395.00
2150, 1397.00
