FW version: 24
Log Version: 3.0.3

General Info:
       Command/Macro Performed,            Timestamp,             Device ID, COM Port, UART/I2C, Test Name, Host Major, Host Minor, Host Revision, Host Git Commit
            Single_measurement,  2023_07_11_11_22_40,       Insight2_F4_xxx,    USB-C,      USB,          ,          0,          1,             1,      4031237645

Show Spectrometer Status:
l0_version, f4_version, battery_perc, battery_mVolt, accelerometer_temp, accelerometer_x, accelerometer_y, accelerometer_z, compass_temp, compass_x, compass_y, compass_z, lamp_0, lamp_1, gain_0, gain_1
        17,         24,           50,          1909,               6896,           65236,            1184,           18500,            0,     65525,     65504,     18543,   2047,   2047,      1,      1

Temperature Statistic Info:
NTC AVG [°C], NTC2 AVG [°C]
      41.536,        41.177

Statistic Info:
M1:  num,      min,      max,   median,      AVG,      STD,M2:  num,      min,      max,   median,      AVG,      STD
     301,   933.00,  1085.00,   966.00,   984.29,  48.6512,     401,  1345.00,  1435.00,  1383.00,  1385.54,  29.8321,

Measurements:
Wavelength, Data Amplitude
1350, 956.00
1351, 956.00
1352, 955.00
1353, 955.00
1354, 954.00
1355, 953.00
1356, 954.00
1357, 953.00
1358, 953.00
1359, 953.00
1360, 951.00
1361, 950.00
1362, 950.00
1363, 950.00
1364, 949.00
1365, 948.00
1366, 948.00
1367, 947.00
1368, 947.00
1369, 946.00
1370, 945.00
1371, 945.00
1372, 943.00
1373, 943.00
1374, 942.00
1375, 942.00
1376, 941.00
1377, 941.00
1378, 940.00
1379, 941.00
1380, 939.00
1381, 939.00
1382, 939.00
1383, 938.00
1384, 937.00
1385, 938.00
1386, 938.00
1387, 937.00
1388, 938.00
1389, 936.00
1390, 936.00
1391, 936.00
1392, 936.00
1393, 935.00
1394, 934.00
1395, 934.00
1396, 934.00
1397, 933.00
1398, 934.00
1399, 934.00
1400, 935.00
1401, 935.00
1402, 934.00
1403, 935.00
1404, 933.00
1405, 934.00
1406, 933.00
1407, 934.00
1408, 935.00
1409, 934.00
1410, 934.00
1411, 934.00
1412, 933.00
1413, 933.00
1414, 934.00
1415, 934.00
1416, 933.00
1417, 933.00
1418, 933.00
1419, 933.00
1420, 935.00
1421, 934.00
1422, 934.00
1423, 935.00
1424, 933.00
1425, 935.00
1426, 934.00
1427, 933.00
1428, 934.00
1429, 934.00
1430, 935.00
1431, 934.00
1432, 935.00
1433, 936.00
1434, 934.00
1435, 935.00
1436, 936.00
1437, 937.00
1438, 936.00
1439, 937.00
1440, 937.00
1441, 938.00
1442, 938.00
1443, 937.00
1444, 938.00
1445, 938.00
1446, 939.00
1447, 940.00
1448, 939.00
1449, 939.00
1450, 939.00
1451, 940.00
1452, 940.00
1453, 941.00
1454, 941.00
1455, 941.00
1456, 942.00
1457, 941.00
1458, 942.00
1459, 942.00
1460, 943.00
1461, 944.00
1462, 944.00
1463, 944.00
1464, 945.00
1465, 946.00
1466, 946.00
1467, 947.00
1468, 947.00
1469, 947.00
1470, 948.00
1471, 948.00
1472, 950.00
1473, 950.00
1474, 950.00
1475, 950.00
1476, 951.00
1477, 952.00
1478, 952.00
1479, 953.00
1480, 953.00
1481, 954.00
1482, 954.00
1483, 956.00
1484, 956.00
1485, 955.00
1486, 957.00
1487, 958.00
1488, 958.00
1489, 959.00
1490, 959.00
1491, 960.00
1492, 961.00
1493, 962.00
1494, 963.00
1495, 964.00
1496, 963.00
1497, 964.00
1498, 965.00
1499, 965.00
1500, 967.00
1501, 966.00
1502, 966.00
1503, 969.00
1504, 969.00
1505, 969.00
1506, 969.00
1507, 971.00
1508, 971.00
1509, 972.00
1510, 973.00
1511, 974.00
1512, 974.00
1513, 975.00
1514, 976.00
1515, 977.00
1516, 977.00
1517, 978.00
1518, 978.00
1519, 979.00
1520, 980.00
1521, 981.00
1522, 982.00
1523, 983.00
1524, 983.00
1525, 983.00
1526, 985.00
1527, 986.00
1528, 987.00
1529, 987.00
1530, 987.00
1531, 989.00
1532, 989.00
1533, 991.00
1534, 992.00
1535, 992.00
1536, 993.00
1537, 994.00
1538, 994.00
1539, 995.00
1540, 995.00
1541, 996.00
1542, 997.00
1543, 998.00
1544, 999.00
1545, 999.00
1546, 1001.00
1547, 1001.00
1548, 1002.00
1549, 1002.00
1550, 1004.00
1551, 1005.00
1552, 1005.00
1553, 1007.00
1554, 1007.00
1555, 1007.00
1556, 1009.00
1557, 1010.00
1558, 1011.00
1559, 1012.00
1560, 1012.00
1561, 1013.00
1562, 1013.00
1563, 1015.00
1564, 1016.00
1565, 1017.00
1566, 1017.00
1567, 1018.00
1568, 1020.00
1569, 1020.00
1570, 1021.00
1571, 1021.00
1572, 1022.00
1573, 1024.00
1574, 1025.00
1575, 1026.00
1576, 1025.00
1577, 1027.00
1578, 1027.00
1579, 1028.00
1580, 1029.00
1581, 1029.00
1582, 1032.00
1583, 1031.00
1584, 1032.00
1585, 1033.00
1586, 1033.00
1587, 1034.00
1588, 1035.00
1589, 1035.00
1590, 1036.00
1591, 1037.00
1592, 1037.00
1593, 1039.00
1594, 1039.00
1595, 1040.00
1596, 1041.00
1597, 1041.00
1598, 1043.00
1599, 1044.00
1600, 1044.00
1601, 1046.00
1602, 1046.00
1603, 1048.00
1604, 1047.00
1605, 1048.00
1606, 1048.00
1607, 1051.00
1608, 1051.00
1609, 1052.00
1610, 1054.00
1611, 1055.00
1612, 1055.00
1613, 1056.00
1614, 1057.00
1615, 1058.00
1616, 1059.00
1617, 1059.00
1618, 1061.00
1619, 1061.00
1620, 1062.00
1621, 1064.00
1622, 1065.00
1623, 1066.00
1624, 1066.00
1625, 1068.00
1626, 1068.00
1627, 1069.00
1628, 1071.00
1629, 1072.00
1630, 1072.00
1631, 1072.00
1632, 1074.00
1633, 1075.00
1634, 1076.00
1635, 1076.00
1636, 1076.00
1637, 1078.00
1638, 1078.00
1639, 1079.00
1640, 1080.00
1641, 1079.00
1642, 1081.00
1643, 1081.00
1644, 1082.00
1645, 1083.00
1646, 1083.00
1647, 1085.00
1648, 1085.00
1649, 1085.00
1650, 1085.00

1750, 1434.00
1751, 1434.00
1752, 1432.00
1753, 1434.00
1754, 1432.00
1755, 1434.00
1756, 1434.00
1757, 1433.00
1758, 1435.00
1759, 1434.00
1760, 1432.00
1761, 1433.00
1762, 1433.00
1763, 1434.00
1764, 1433.00
1765, 1433.00
1766, 1433.00
1767, 1434.00
1768, 1432.00
1769, 1433.00
1770, 1432.00
1771, 1433.00
1772, 1433.00
1773, 1433.00
1774, 1431.00
1775, 1430.00
1776, 1432.00
1777, 1431.00
1778, 1431.00
1779, 1429.00
1780, 1431.00
1781, 1428.00
1782, 1431.00
1783, 1429.00
1784, 1430.00
1785, 1429.00
1786, 1429.00
1787, 1426.00
1788, 1427.00
1789, 1428.00
1790, 1428.00
1791, 1426.00
1792, 1426.00
1793, 1428.00
1794, 1426.00
1795, 1425.00
1796, 1425.00
1797, 1425.00
1798, 1424.00
1799, 1423.00
1800, 1425.00
1801, 1425.00
1802, 1424.00
1803, 1422.00
1804, 1424.00
1805, 1423.00
1806, 1423.00
1807, 1422.00
1808, 1421.00
1809, 1422.00
1810, 1422.00
1811, 1420.00
1812, 1423.00
1813, 1421.00
1814, 1419.00
1815, 1419.00
1816, 1418.00
1817, 1418.00
1818, 1420.00
1819, 1417.00
1820, 1416.00
1821, 1415.00
1822, 1416.00
1823, 1414.00
1824, 1414.00
1825, 1412.00
1826, 1413.00
1827, 1412.00
1828, 1412.00
1829, 1411.00
1830, 1408.00
1831, 1408.00
1832, 1405.00
1833, 1406.00
1834, 1405.00
1835, 1406.00
1836, 1403.00
1837, 1398.00
1838, 1401.00
1839, 1400.00
1840, 1399.00
1841, 1397.00
1842, 1396.00
1843, 1392.00
1844, 1393.00
1845, 1390.00
1846, 1390.00
1847, 1390.00
1848, 1387.00
1849, 1386.00
1850, 1382.00
1851, 1382.00
1852, 1383.00
1853, 1379.00
1854, 1377.00
1855, 1375.00
1856, 1377.00
1857, 1374.00
1858, 1373.00
1859, 1373.00
1860, 1370.00
1861, 1369.00
1862, 1370.00
1863, 1366.00
1864, 1368.00
1865, 1366.00
1866, 1363.00
1867, 1365.00
1868, 1363.00
1869, 1362.00
1870, 1361.00
1871, 1361.00
1872, 1360.00
1873, 1359.00
1874, 1359.00
1875, 1359.00
1876, 1357.00
1877, 1357.00
1878, 1355.00
1879, 1355.00
1880, 1356.00
1881, 1356.00
1882, 1356.00
1883, 1356.00
1884, 1354.00
1885, 1353.00
1886, 1352.00
1887, 1353.00
1888, 1353.00
1889, 1352.00
1890, 1350.00
1891, 1349.00
1892, 1351.00
1893, 1352.00
1894, 1351.00
1895, 1348.00
1896, 1350.00
1897, 1349.00
1898, 1350.00
1899, 1348.00
1900, 1348.00
1901, 1347.00
1902, 1350.00
1903, 1348.00
1904, 1346.00
1905, 1347.00
1906, 1348.00
1907, 1348.00
1908, 1346.00
1909, 1349.00
1910, 1349.00
1911, 1346.00
1912, 1347.00
1913, 1346.00
1914, 1347.00
1915, 1345.00
1916, 1347.00
1917, 1349.00
1918, 1347.00
1919, 1347.00
1920, 1347.00
1921, 1345.00
1922, 1345.00
1923, 1347.00
1924, 1346.00
1925, 1346.00
1926, 1347.00
1927, 1346.00
1928, 1346.00
1929, 1346.00
1930, 1348.00
1931, 1347.00
1932, 1347.00
1933, 1347.00
1934, 1346.00
1935, 1346.00
1936, 1346.00
1937, 1347.00
1938, 1347.00
1939, 1345.00
1940, 1348.00
1941, 1348.00
1942, 1345.00
1943, 1347.00
1944, 1348.00
1945, 1349.00
1946, 1348.00
1947, 1347.00
1948, 1351.00
1949, 1349.00
1950, 1349.00
1951, 1347.00
1952, 1347.00
1953, 1348.00
1954, 1348.00
1955, 1348.00
1956, 1349.00
1957, 1348.00
1958, 1349.00
1959, 1349.00
1960, 1352.00
1961, 1350.00
1962, 1353.00
1963, 1349.00
1964, 1351.00
1965, 1352.00
1966, 1352.00
1967, 1355.00
1968, 1351.00
1969, 1353.00
1970, 1355.00
1971, 1354.00
1972, 1354.00
1973, 1354.00
1974, 1354.00
1975, 1354.00
1976, 1355.00
1977, 1356.00
1978, 1356.00
1979, 1355.00
1980, 1356.00
1981, 1357.00
1982, 1357.00
1983, 1356.00
1984, 1357.00
1985, 1359.00
1986, 1358.00
1987, 1358.00
1988, 1358.00
1989, 1360.00
1990, 1359.00
1991, 1361.00
1992, 1361.00
1993, 1364.00
1994, 1361.00
1995, 1361.00
1996, 1361.00
1997, 1361.00
1998, 1362.00
1999, 1363.00
2000, 1362.00
2001, 1363.00
2002, 1363.00
2003, 1362.00
2004, 1366.00
2005, 1365.00
2006, 1364.00
2007, 1366.00
2008, 1365.00
2009, 1365.00
2010, 1365.00
2011, 1365.00
2012, 1367.00
2013, 1366.00
2014, 1367.00
2015, 1367.00
2016, 1368.00
2017, 1369.00
2018, 1369.00
2019, 1367.00
2020, 1368.00
2021, 1370.00
2022, 1369.00
2023, 1371.00
2024, 1371.00
2025, 1372.00
2026, 1372.00
2027, 1373.00
2028, 1372.00
2029, 1373.00
2030, 1372.00
2031, 1373.00
2032, 1374.00
2033, 1374.00
2034, 1376.00
2035, 1375.00
2036, 1376.00
2037, 1376.00
2038, 1377.00
2039, 1377.00
2040, 1378.00
2041, 1378.00
2042, 1380.00
2043, 1379.00
2044, 1379.00
2045, 1380.00
2046, 1379.00
2047, 1380.00
2048, 1382.00
2049, 1381.00
2050, 1384.00
2051, 1384.00
2052, 1384.00
2053, 1385.00
2054, 1383.00
2055, 1386.00
2056, 1385.00
2057, 1386.00
2058, 1386.00
2059, 1388.00
2060, 1389.00
2061, 1388.00
2062, 1389.00
2063, 1389.00
2064, 1390.00
2065, 1391.00
2066, 1391.00
2067, 1391.00
2068, 1393.00
2069, 1391.00
2070, 1393.00
2071, 1395.00
2072, 1393.00
2073, 1395.00
2074, 1395.00
2075, 1396.00
2076, 1395.00
2077, 1395.00
2078, 1397.00
2079, 1397.00
2080, 1397.00
2081, 1398.00
2082, 1400.00
2083, 1398.00
2084, 1398.00
2085, 1399.00
2086, 1402.00
2087, 1400.00
2088, 1401.00
2089, 1402.00
2090, 1405.00
2091, 1403.00
2092, 1404.00
2093, 1404.00
2094, 1404.00
2095, 1403.00
2096, 1406.00
2097, 1405.00
2098, 1405.00
2099, 1403.00
2100, 1405.00
2101, 1408.00
2102, 1407.00
2103, 1408.00
2104, 1409.00
2105, 1408.00
2106, 1410.00
2107, 1410.00
2108, 1408.00
2109, 1409.00
2110, 1410.00
2111, 1410.00
2112, 1410.00
2113, 1411.00
2114, 1410.00
2115, 1411.00
2116, 1411.00
2117, 1411.00
2118, 1411.00
2119, 1413.00
2120, 1413.00
2121, 1415.00
2122, 1413.00
2123, 1415.00
2124, 1413.00
2125, 1413.00
2126, 1414.00
2127, 1414.00
2128, 1416.00
2129, 1414.00
2130, 1414.00
2131, 1416.00
2132, 1415.00
2133, 1416.00
2134, 1419.00
2135, 1416.00
2136, 1416.00
2137, 1416.00
2138, 1416.00
2139, 1417.00
2140, 1418.00
2141, 1417.00
2142, 1418.00
2143, 1420.00
2144, 1418.00
2145, 1417.00
2146, 1417.00
2147, 1421.00
2148, 1420.00
2149, 1419.00
2150, 1418.00
