FW version: 24
Log Version: 3.0.3

General Info:
       Command/Macro Performed,            Timestamp,             Device ID, COM Port, UART/I2C, Test Name, Host Major, Host Minor, Host Revision, Host Git Commit
            Single_measurement,  2023_06_29_12_01_57,       Insight2_F4_xxx,    USB-C,      USB,          ,          0,          1,             1,      4031237645

Show Spectrometer Status:
l0_version, f4_version, battery_perc, battery_mVolt, accelerometer_temp, accelerometer_x, accelerometer_y, accelerometer_z, compass_temp, compass_x, compass_y, compass_z, lamp_0, lamp_1, gain_0, gain_1
        17,         24,           95,          2078,               5888,             196,           65080,           18496,            0,     65519,     65400,     65507,   2457,   2457,      1,      1

Temperature Statistic Info:
NTC AVG [°C], NTC2 AVG [°C]
      37.925,        37.669

Statistic Info:
M1:  num,      min,      max,   median,      AVG,      STD,M2:  num,      min,      max,   median,      AVG,      STD
     301,   863.00,   970.00,   888.00,   898.96,  32.9952,     401,  1310.00,  1369.00,  1341.00,  1340.28,  20.2485,

Measurements:
Wavelength, Data Amplitude
1350, 874.00
1351, 874.00
1352, 874.00
1353, 873.00
1354, 873.00
1355, 874.00
1356, 874.00
1357, 873.00
1358, 873.00
1359, 873.00
1360, 873.00
1361, 872.00
1362, 872.00
1363, 872.00
1364, 871.00
1365, 871.00
1366, 870.00
1367, 871.00
1368, 870.00
1369, 870.00
1370, 869.00
1371, 870.00
1372, 869.00
1373, 870.00
1374, 869.00
1375, 868.00
1376, 868.00
1377, 867.00
1378, 866.00
1379, 867.00
1380, 867.00
1381, 867.00
1382, 866.00
1383, 865.00
1384, 866.00
1385, 866.00
1386, 866.00
1387, 865.00
1388, 865.00
1389, 865.00
1390, 865.00
1391, 865.00
1392, 866.00
1393, 866.00
1394, 863.00
1395, 864.00
1396, 864.00
1397, 865.00
1398, 865.00
1399, 864.00
1400, 864.00
1401, 865.00
1402, 864.00
1403, 865.00
1404, 864.00
1405, 865.00
1406, 864.00
1407, 864.00
1408, 864.00
1409, 864.00
1410, 864.00
1411, 864.00
1412, 864.00
1413, 865.00
1414, 864.00
1415, 864.00
1416, 865.00
1417, 864.00
1418, 864.00
1419, 865.00
1420, 863.00
1421, 865.00
1422, 864.00
1423, 865.00
1424, 865.00
1425, 864.00
1426, 865.00
1427, 865.00
1428, 865.00
1429, 866.00
1430, 864.00
1431, 866.00
1432, 866.00
1433, 866.00
1434, 866.00
1435, 866.00
1436, 866.00
1437, 866.00
1438, 867.00
1439, 867.00
1440, 866.00
1441, 867.00
1442, 868.00
1443, 868.00
1444, 869.00
1445, 868.00
1446, 869.00
1447, 868.00
1448, 869.00
1449, 869.00
1450, 869.00
1451, 870.00
1452, 870.00
1453, 870.00
1454, 871.00
1455, 870.00
1456, 871.00
1457, 871.00
1458, 872.00
1459, 872.00
1460, 872.00
1461, 873.00
1462, 874.00
1463, 874.00
1464, 874.00
1465, 874.00
1466, 873.00
1467, 874.00
1468, 875.00
1469, 877.00
1470, 876.00
1471, 875.00
1472, 877.00
1473, 877.00
1474, 878.00
1475, 877.00
1476, 879.00
1477, 879.00
1478, 879.00
1479, 879.00
1480, 881.00
1481, 880.00
1482, 880.00
1483, 881.00
1484, 881.00
1485, 882.00
1486, 882.00
1487, 882.00
1488, 882.00
1489, 884.00
1490, 885.00
1491, 885.00
1492, 885.00
1493, 886.00
1494, 887.00
1495, 887.00
1496, 886.00
1497, 888.00
1498, 887.00
1499, 888.00
1500, 888.00
1501, 889.00
1502, 890.00
1503, 891.00
1504, 890.00
1505, 892.00
1506, 892.00
1507, 893.00
1508, 893.00
1509, 893.00
1510, 893.00
1511, 894.00
1512, 894.00
1513, 895.00
1514, 896.00
1515, 898.00
1516, 896.00
1517, 898.00
1518, 898.00
1519, 898.00
1520, 898.00
1521, 899.00
1522, 899.00
1523, 900.00
1524, 900.00
1525, 901.00
1526, 902.00
1527, 902.00
1528, 902.00
1529, 903.00
1530, 904.00
1531, 904.00
1532, 905.00
1533, 905.00
1534, 905.00
1535, 906.00
1536, 906.00
1537, 907.00
1538, 907.00
1539, 907.00
1540, 909.00
1541, 909.00
1542, 909.00
1543, 909.00
1544, 910.00
1545, 911.00
1546, 911.00
1547, 911.00
1548, 912.00
1549, 913.00
1550, 914.00
1551, 913.00
1552, 915.00
1553, 915.00
1554, 915.00
1555, 916.00
1556, 916.00
1557, 916.00
1558, 917.00
1559, 917.00
1560, 918.00
1561, 918.00
1562, 919.00
1563, 920.00
1564, 920.00
1565, 920.00
1566, 921.00
1567, 922.00
1568, 922.00
1569, 923.00
1570, 924.00
1571, 924.00
1572, 925.00
1573, 925.00
1574, 925.00
1575, 926.00
1576, 927.00
1577, 927.00
1578, 928.00
1579, 928.00
1580, 929.00
1581, 929.00
1582, 930.00
1583, 930.00
1584, 929.00
1585, 931.00
1586, 931.00
1587, 932.00
1588, 932.00
1589, 933.00
1590, 933.00
1591, 933.00
1592, 935.00
1593, 935.00
1594, 936.00
1595, 936.00
1596, 935.00
1597, 938.00
1598, 938.00
1599, 938.00
1600, 938.00
1601, 938.00
1602, 940.00
1603, 940.00
1604, 941.00
1605, 941.00
1606, 942.00
1607, 942.00
1608, 943.00
1609, 944.00
1610, 945.00
1611, 945.00
1612, 946.00
1613, 946.00
1614, 947.00
1615, 948.00
1616, 948.00
1617, 949.00
1618, 950.00
1619, 951.00
1620, 951.00
1621, 951.00
1622, 953.00
1623, 953.00
1624, 953.00
1625, 954.00
1626, 955.00
1627, 955.00
1628, 956.00
1629, 957.00
1630, 958.00
1631, 959.00
1632, 959.00
1633, 960.00
1634, 959.00
1635, 961.00
1636, 961.00
1637, 962.00
1638, 962.00
1639, 963.00
1640, 964.00
1641, 964.00
1642, 965.00
1643, 966.00
1644, 966.00
1645, 967.00
1646, 967.00
1647, 969.00
1648, 968.00
1649, 969.00
1650, 970.00

1750, 1366.00
1751, 1367.00
1752, 1368.00
1753, 1369.00
1754, 1369.00
1755, 1368.00
1756, 1367.00
1757, 1369.00
1758, 1367.00
1759, 1367.00
1760, 1366.00
1761, 1368.00
1762, 1367.00
1763, 1367.00
1764, 1366.00
1765, 1367.00
1766, 1368.00
1767, 1367.00
1768, 1367.00
1769, 1366.00
1770, 1366.00
1771, 1366.00
1772, 1366.00
1773, 1364.00
1774, 1365.00
1775, 1366.00
1776, 1366.00
1777, 1367.00
1778, 1366.00
1779, 1365.00
1780, 1365.00
1781, 1364.00
1782, 1364.00
1783, 1365.00
1784, 1365.00
1785, 1365.00
1786, 1364.00
1787, 1365.00
1788, 1363.00
1789, 1364.00
1790, 1363.00
1791, 1364.00
1792, 1364.00
1793, 1363.00
1794, 1365.00
1795, 1362.00
1796, 1362.00
1797, 1363.00
1798, 1363.00
1799, 1362.00
1800, 1362.00
1801, 1361.00
1802, 1359.00
1803, 1360.00
1804, 1361.00
1805, 1362.00
1806, 1362.00
1807, 1360.00
1808, 1363.00
1809, 1359.00
1810, 1359.00
1811, 1358.00
1812, 1359.00
1813, 1358.00
1814, 1359.00
1815, 1359.00
1816, 1359.00
1817, 1361.00
1818, 1358.00
1819, 1358.00
1820, 1359.00
1821, 1358.00
1822, 1358.00
1823, 1358.00
1824, 1359.00
1825, 1357.00
1826, 1356.00
1827, 1356.00
1828, 1356.00
1829, 1356.00
1830, 1354.00
1831, 1355.00
1832, 1354.00
1833, 1353.00
1834, 1353.00
1835, 1353.00
1836, 1354.00
1837, 1352.00
1838, 1351.00
1839, 1350.00
1840, 1349.00
1841, 1349.00
1842, 1347.00
1843, 1345.00
1844, 1346.00
1845, 1345.00
1846, 1345.00
1847, 1343.00
1848, 1342.00
1849, 1341.00
1850, 1341.00
1851, 1341.00
1852, 1340.00
1853, 1337.00
1854, 1337.00
1855, 1335.00
1856, 1335.00
1857, 1334.00
1858, 1332.00
1859, 1331.00
1860, 1332.00
1861, 1331.00
1862, 1329.00
1863, 1330.00
1864, 1328.00
1865, 1326.00
1866, 1326.00
1867, 1326.00
1868, 1325.00
1869, 1325.00
1870, 1323.00
1871, 1323.00
1872, 1323.00
1873, 1321.00
1874, 1321.00
1875, 1319.00
1876, 1321.00
1877, 1319.00
1878, 1319.00
1879, 1317.00
1880, 1319.00
1881, 1318.00
1882, 1317.00
1883, 1318.00
1884, 1317.00
1885, 1314.00
1886, 1315.00
1887, 1315.00
1888, 1316.00
1889, 1314.00
1890, 1315.00
1891, 1313.00
1892, 1315.00
1893, 1314.00
1894, 1315.00
1895, 1313.00
1896, 1314.00
1897, 1312.00
1898, 1313.00
1899, 1314.00
1900, 1312.00
1901, 1312.00
1902, 1313.00
1903, 1311.00
1904, 1313.00
1905, 1312.00
1906, 1313.00
1907, 1311.00
1908, 1314.00
1909, 1312.00
1910, 1312.00
1911, 1312.00
1912, 1311.00
1913, 1310.00
1914, 1311.00
1915, 1311.00
1916, 1312.00
1917, 1311.00
1918, 1310.00
1919, 1310.00
1920, 1310.00
1921, 1311.00
1922, 1311.00
1923, 1311.00
1924, 1312.00
1925, 1310.00
1926, 1310.00
1927, 1313.00
1928, 1312.00
1929, 1310.00
1930, 1312.00
1931, 1311.00
1932, 1312.00
1933, 1311.00
1934, 1313.00
1935, 1312.00
1936, 1312.00
1937, 1312.00
1938, 1312.00
1939, 1312.00
1940, 1314.00
1941, 1313.00
1942, 1313.00
1943, 1312.00
1944, 1312.00
1945, 1313.00
1946, 1312.00
1947, 1312.00
1948, 1312.00
1949, 1312.00
1950, 1314.00
1951, 1313.00
1952, 1314.00
1953, 1315.00
1954, 1315.00
1955, 1314.00
1956, 1314.00
1957, 1314.00
1958, 1315.00
1959, 1316.00
1960, 1316.00
1961, 1316.00
1962, 1317.00
1963, 1317.00
1964, 1318.00
1965, 1317.00
1966, 1318.00
1967, 1316.00
1968, 1319.00
1969, 1319.00
1970, 1318.00
1971, 1319.00
1972, 1320.00
1973, 1318.00
1974, 1319.00
1975, 1319.00
1976, 1320.00
1977, 1318.00
1978, 1320.00
1979, 1321.00
1980, 1321.00
1981, 1320.00
1982, 1321.00
1983, 1320.00
1984, 1321.00
1985, 1322.00
1986, 1321.00
1987, 1322.00
1988, 1324.00
1989, 1324.00
1990, 1323.00
1991, 1325.00
1992, 1323.00
1993, 1324.00
1994, 1324.00
1995, 1324.00
1996, 1325.00
1997, 1325.00
1998, 1325.00
1999, 1326.00
2000, 1326.00
2001, 1327.00
2002, 1326.00
2003, 1326.00
2004, 1327.00
2005, 1327.00
2006, 1328.00
2007, 1328.00
2008, 1328.00
2009, 1329.00
2010, 1329.00
2011, 1328.00
2012, 1329.00
2013, 1331.00
2014, 1329.00
2015, 1328.00
2016, 1330.00
2017, 1329.00
2018, 1331.00
2019, 1330.00
2020, 1332.00
2021, 1333.00
2022, 1332.00
2023, 1333.00
2024, 1332.00
2025, 1334.00
2026, 1334.00
2027, 1334.00
2028, 1333.00
2029, 1333.00
2030, 1333.00
2031, 1334.00
2032, 1337.00
2033, 1334.00
2034, 1336.00
2035, 1336.00
2036, 1337.00
2037, 1338.00
2038, 1338.00
2039, 1336.00
2040, 1338.00
2041, 1340.00
2042, 1341.00
2043, 1340.00
2044, 1339.00
2045, 1341.00
2046, 1340.00
2047, 1341.00
2048, 1342.00
2049, 1342.00
2050, 1342.00
2051, 1341.00
2052, 1341.00
2053, 1343.00
2054, 1344.00
2055, 1343.00
2056, 1342.00
2057, 1344.00
2058, 1345.00
2059, 1347.00
2060, 1345.00
2061, 1345.00
2062, 1348.00
2063, 1346.00
2064, 1347.00
2065, 1347.00
2066, 1348.00
2067, 1348.00
2068, 1350.00
2069, 1350.00
2070, 1351.00
2071, 1351.00
2072, 1350.00
2073, 1350.00
2074, 1352.00
2075, 1352.00
2076, 1351.00
2077, 1351.00
2078, 1352.00
2079, 1353.00
2080, 1353.00
2081, 1354.00
2082, 1354.00
2083, 1356.00
2084, 1353.00
2085, 1356.00
2086, 1354.00
2087, 1355.00
2088, 1358.00
2089, 1357.00
2090, 1357.00
2091, 1356.00
2092, 1358.00
2093, 1358.00
2094, 1358.00
2095, 1358.00
2096, 1358.00
2097, 1359.00
2098, 1357.00
2099, 1360.00
2100, 1359.00
2101, 1360.00
2102, 1359.00
2103, 1361.00
2104, 1361.00
2105, 1359.00
2106, 1360.00
2107, 1360.00
2108, 1361.00
2109, 1361.00
2110, 1361.00
2111, 1362.00
2112, 1361.00
2113, 1362.00
2114, 1361.00
2115, 1364.00
2116, 1362.00
2117, 1362.00
2118, 1363.00
2119, 1361.00
2120, 1363.00
2121, 1363.00
2122, 1361.00
2123, 1363.00
2124, 1363.00
2125, 1361.00
2126, 1365.00
2127, 1364.00
2128, 1363.00
2129, 1363.00
2130, 1364.00
2131, 1365.00
2132, 1365.00
2133, 1365.00
2134, 1363.00
2135, 1365.00
2136, 1364.00
2137, 1364.00
2138, 1365.00
2139, 1366.00
2140, 1366.00
2141, 1365.00
2142, 1363.00
2143, 1366.00
2144, 1367.00
2145, 1366.00
2146, 1366.00
2147, 1366.00
2148, 1365.00
2149, 1365.00
2150, 1364.00
