FW version: 24
Log Version: 3.0.3

General Info:
       Command/Macro Performed,            Timestamp,             Device ID, COM Port, UART/I2C, Test Name, Host Major, Host Minor, Host Revision, Host Git Commit
            Single_measurement,  2023_07_04_11_19_28,       Insight2_F4_xxx,    USB-C,      USB,          ,          0,          1,             1,      4031237645

Show Spectrometer Status:
l0_version, f4_version, battery_perc, battery_mVolt, accelerometer_temp, accelerometer_x, accelerometer_y, accelerometer_z, compass_temp, compass_x, compass_y, compass_z, lamp_0, lamp_1, gain_0, gain_1
        17,         24,           24,          1859,               6128,           64820,            2388,           19256,            0,     65407,     65406,     19323,   3276,   3276,      1,      1

Temperature Statistic Info:
NTC AVG [°C], NTC2 AVG [°C]
      38.508,        38.158

Statistic Info:
M1:  num,      min,      max,   median,      AVG,      STD,M2:  num,      min,      max,   median,      AVG,      STD
     301,  2042.00,  2357.00,  2107.00,  2146.87,  97.8018,     401,  2609.00,  2803.00,  2689.00,  2694.56,  62.9909,

Measurements:
Wavelength, Data Amplitude
1350, 2103.00
1351, 2102.00
1352, 2099.00
1353, 2100.00
1354, 2098.00
1355, 2098.00
1356, 2098.00
1357, 2095.00
1358, 2096.00
1359, 2092.00
1360, 2092.00
1361, 2091.00
1362, 2089.00
1363, 2088.00
1364, 2086.00
1365, 2084.00
1366, 2082.00
1367, 2082.00
1368, 2079.00
1369, 2077.00
1370, 2077.00
1371, 2076.00
1372, 2074.00
1373, 2072.00
1374, 2071.00
1375, 2069.00
1376, 2067.00
1377, 2066.00
1378, 2064.00
1379, 2064.00
1380, 2063.00
1381, 2062.00
1382, 2060.00
1383, 2059.00
1384, 2057.00
1385, 2057.00
1386, 2056.00
1387, 2055.00
1388, 2054.00
1389, 2054.00
1390, 2053.00
1391, 2052.00
1392, 2053.00
1393, 2052.00
1394, 2050.00
1395, 2049.00
1396, 2049.00
1397, 2049.00
1398, 2049.00
1399, 2048.00
1400, 2047.00
1401, 2047.00
1402, 2048.00
1403, 2046.00
1404, 2046.00
1405, 2047.00
1406, 2045.00
1407, 2045.00
1408, 2046.00
1409, 2045.00
1410, 2045.00
1411, 2045.00
1412, 2045.00
1413, 2044.00
1414, 2045.00
1415, 2044.00
1416, 2044.00
1417, 2045.00
1418, 2043.00
1419, 2043.00
1420, 2043.00
1421, 2044.00
1422, 2043.00
1423, 2044.00
1424, 2043.00
1425, 2042.00
1426, 2043.00
1427, 2044.00
1428, 2044.00
1429, 2045.00
1430, 2044.00
1431, 2045.00
1432, 2045.00
1433, 2046.00
1434, 2046.00
1435, 2047.00
1436, 2047.00
1437, 2048.00
1438, 2050.00
1439, 2049.00
1440, 2050.00
1441, 2050.00
1442, 2049.00
1443, 2050.00
1444, 2050.00
1445, 2052.00
1446, 2053.00
1447, 2053.00
1448, 2054.00
1449, 2054.00
1450, 2054.00
1451, 2055.00
1452, 2057.00
1453, 2057.00
1454, 2057.00
1455, 2059.00
1456, 2059.00
1457, 2059.00
1458, 2060.00
1459, 2060.00
1460, 2062.00
1461, 2063.00
1462, 2064.00
1463, 2064.00
1464, 2065.00
1465, 2066.00
1466, 2068.00
1467, 2068.00
1468, 2069.00
1469, 2071.00
1470, 2071.00
1471, 2071.00
1472, 2074.00
1473, 2074.00
1474, 2075.00
1475, 2076.00
1476, 2077.00
1477, 2078.00
1478, 2080.00
1479, 2081.00
1480, 2081.00
1481, 2083.00
1482, 2084.00
1483, 2086.00
1484, 2087.00
1485, 2089.00
1486, 2089.00
1487, 2091.00
1488, 2092.00
1489, 2093.00
1490, 2095.00
1491, 2096.00
1492, 2098.00
1493, 2098.00
1494, 2100.00
1495, 2101.00
1496, 2103.00
1497, 2104.00
1498, 2105.00
1499, 2105.00
1500, 2107.00
1501, 2109.00
1502, 2109.00
1503, 2112.00
1504, 2112.00
1505, 2113.00
1506, 2115.00
1507, 2116.00
1508, 2117.00
1509, 2120.00
1510, 2121.00
1511, 2123.00
1512, 2123.00
1513, 2125.00
1514, 2126.00
1515, 2127.00
1516, 2129.00
1517, 2131.00
1518, 2133.00
1519, 2134.00
1520, 2135.00
1521, 2137.00
1522, 2139.00
1523, 2140.00
1524, 2141.00
1525, 2144.00
1526, 2145.00
1527, 2145.00
1528, 2148.00
1529, 2150.00
1530, 2151.00
1531, 2151.00
1532, 2153.00
1533, 2155.00
1534, 2157.00
1535, 2158.00
1536, 2160.00
1537, 2162.00
1538, 2164.00
1539, 2165.00
1540, 2167.00
1541, 2168.00
1542, 2170.00
1543, 2171.00
1544, 2173.00
1545, 2175.00
1546, 2176.00
1547, 2178.00
1548, 2180.00
1549, 2181.00
1550, 2184.00
1551, 2185.00
1552, 2187.00
1553, 2187.00
1554, 2191.00
1555, 2191.00
1556, 2193.00
1557, 2195.00
1558, 2197.00
1559, 2198.00
1560, 2200.00
1561, 2201.00
1562, 2204.00
1563, 2205.00
1564, 2207.00
1565, 2209.00
1566, 2211.00
1567, 2213.00
1568, 2216.00
1569, 2218.00
1570, 2220.00
1571, 2220.00
1572, 2222.00
1573, 2223.00
1574, 2227.00
1575, 2227.00
1576, 2229.00
1577, 2230.00
1578, 2233.00
1579, 2233.00
1580, 2235.00
1581, 2236.00
1582, 2239.00
1583, 2240.00
1584, 2242.00
1585, 2245.00
1586, 2245.00
1587, 2248.00
1588, 2249.00
1589, 2250.00
1590, 2252.00
1591, 2253.00
1592, 2254.00
1593, 2256.00
1594, 2258.00
1595, 2259.00
1596, 2260.00
1597, 2262.00
1598, 2264.00
1599, 2266.00
1600, 2268.00
1601, 2268.00
1602, 2271.00
1603, 2272.00
1604, 2274.00
1605, 2276.00
1606, 2277.00
1607, 2278.00
1608, 2281.00
1609, 2283.00
1610, 2286.00
1611, 2288.00
1612, 2289.00
1613, 2292.00
1614, 2294.00
1615, 2295.00
1616, 2297.00
1617, 2299.00
1618, 2301.00
1619, 2303.00
1620, 2305.00
1621, 2306.00
1622, 2309.00
1623, 2310.00
1624, 2313.00
1625, 2315.00
1626, 2316.00
1627, 2318.00
1628, 2321.00
1629, 2323.00
1630, 2325.00
1631, 2326.00
1632, 2329.00
1633, 2330.00
1634, 2331.00
1635, 2333.00
1636, 2335.00
1637, 2337.00
1638, 2337.00
1639, 2340.00
1640, 2342.00
1641, 2343.00
1642, 2343.00
1643, 2346.00
1644, 2347.00
1645, 2349.00
1646, 2351.00
1647, 2351.00
1648, 2354.00
1649, 2357.00
1650, 2357.00

1750, 2802.00
1751, 2803.00
1752, 2802.00
1753, 2802.00
1754, 2802.00
1755, 2801.00
1756, 2801.00
1757, 2802.00
1758, 2801.00
1759, 2801.00
1760, 2802.00
1761, 2801.00
1762, 2801.00
1763, 2803.00
1764, 2801.00
1765, 2803.00
1766, 2797.00
1767, 2801.00
1768, 2801.00
1769, 2799.00
1770, 2799.00
1771, 2797.00
1772, 2798.00
1773, 2799.00
1774, 2797.00
1775, 2796.00
1776, 2796.00
1777, 2795.00
1778, 2794.00
1779, 2793.00
1780, 2797.00
1781, 2792.00
1782, 2793.00
1783, 2792.00
1784, 2791.00
1785, 2793.00
1786, 2789.00
1787, 2790.00
1788, 2788.00
1789, 2788.00
1790, 2789.00
1791, 2786.00
1792, 2788.00
1793, 2785.00
1794, 2785.00
1795, 2783.00
1796, 2785.00
1797, 2783.00
1798, 2784.00
1799, 2780.00
1800, 2781.00
1801, 2780.00
1802, 2781.00
1803, 2781.00
1804, 2779.00
1805, 2780.00
1806, 2779.00
1807, 2776.00
1808, 2777.00
1809, 2776.00
1810, 2775.00
1811, 2774.00
1812, 2773.00
1813, 2772.00
1814, 2772.00
1815, 2772.00
1816, 2771.00
1817, 2769.00
1818, 2767.00
1819, 2766.00
1820, 2767.00
1821, 2766.00
1822, 2764.00
1823, 2764.00
1824, 2761.00
1825, 2758.00
1826, 2759.00
1827, 2755.00
1828, 2755.00
1829, 2751.00
1830, 2751.00
1831, 2748.00
1832, 2745.00
1833, 2747.00
1834, 2741.00
1835, 2742.00
1836, 2737.00
1837, 2735.00
1838, 2735.00
1839, 2731.00
1840, 2728.00
1841, 2727.00
1842, 2723.00
1843, 2720.00
1844, 2716.00
1845, 2712.00
1846, 2710.00
1847, 2707.00
1848, 2706.00
1849, 2701.00
1850, 2700.00
1851, 2693.00
1852, 2691.00
1853, 2689.00
1854, 2685.00
1855, 2684.00
1856, 2681.00
1857, 2679.00
1858, 2675.00
1859, 2674.00
1860, 2670.00
1861, 2667.00
1862, 2663.00
1863, 2663.00
1864, 2660.00
1865, 2657.00
1866, 2655.00
1867, 2653.00
1868, 2651.00
1869, 2649.00
1870, 2648.00
1871, 2646.00
1872, 2643.00
1873, 2642.00
1874, 2640.00
1875, 2640.00
1876, 2637.00
1877, 2637.00
1878, 2635.00
1879, 2634.00
1880, 2634.00
1881, 2632.00
1882, 2632.00
1883, 2628.00
1884, 2629.00
1885, 2628.00
1886, 2626.00
1887, 2627.00
1888, 2625.00
1889, 2625.00
1890, 2624.00
1891, 2624.00
1892, 2626.00
1893, 2620.00
1894, 2621.00
1895, 2622.00
1896, 2621.00
1897, 2619.00
1898, 2620.00
1899, 2620.00
1900, 2619.00
1901, 2618.00
1902, 2618.00
1903, 2618.00
1904, 2615.00
1905, 2616.00
1906, 2616.00
1907, 2616.00
1908, 2616.00
1909, 2617.00
1910, 2615.00
1911, 2615.00
1912, 2617.00
1913, 2613.00
1914, 2615.00
1915, 2615.00
1916, 2613.00
1917, 2614.00
1918, 2613.00
1919, 2613.00
1920, 2613.00
1921, 2612.00
1922, 2613.00
1923, 2612.00
1924, 2612.00
1925, 2609.00
1926, 2612.00
1927, 2613.00
1928, 2612.00
1929, 2614.00
1930, 2612.00
1931, 2611.00
1932, 2613.00
1933, 2612.00
1934, 2614.00
1935, 2613.00
1936, 2611.00
1937, 2613.00
1938, 2614.00
1939, 2613.00
1940, 2613.00
1941, 2614.00
1942, 2612.00
1943, 2613.00
1944, 2615.00
1945, 2614.00
1946, 2615.00
1947, 2615.00
1948, 2617.00
1949, 2616.00
1950, 2616.00
1951, 2616.00
1952, 2617.00
1953, 2617.00
1954, 2618.00
1955, 2618.00
1956, 2619.00
1957, 2618.00
1958, 2619.00
1959, 2619.00
1960, 2620.00
1961, 2620.00
1962, 2622.00
1963, 2625.00
1964, 2624.00
1965, 2624.00
1966, 2625.00
1967, 2625.00
1968, 2626.00
1969, 2629.00
1970, 2626.00
1971, 2624.00
1972, 2624.00
1973, 2628.00
1974, 2627.00
1975, 2627.00
1976, 2629.00
1977, 2630.00
1978, 2632.00
1979, 2631.00
1980, 2633.00
1981, 2633.00
1982, 2633.00
1983, 2636.00
1984, 2637.00
1985, 2636.00
1986, 2636.00
1987, 2639.00
1988, 2639.00
1989, 2638.00
1990, 2640.00
1991, 2640.00
1992, 2639.00
1993, 2642.00
1994, 2642.00
1995, 2644.00
1996, 2644.00
1997, 2644.00
1998, 2646.00
1999, 2646.00
2000, 2645.00
2001, 2647.00
2002, 2648.00
2003, 2649.00
2004, 2649.00
2005, 2648.00
2006, 2650.00
2007, 2650.00
2008, 2652.00
2009, 2652.00
2010, 2651.00
2011, 2653.00
2012, 2654.00
2013, 2654.00
2014, 2656.00
2015, 2657.00
2016, 2657.00
2017, 2658.00
2018, 2659.00
2019, 2660.00
2020, 2659.00
2021, 2660.00
2022, 2661.00
2023, 2663.00
2024, 2663.00
2025, 2664.00
2026, 2662.00
2027, 2664.00
2028, 2664.00
2029, 2666.00
2030, 2667.00
2031, 2666.00
2032, 2668.00
2033, 2668.00
2034, 2670.00
2035, 2672.00
2036, 2671.00
2037, 2672.00
2038, 2673.00
2039, 2675.00
2040, 2675.00
2041, 2677.00
2042, 2678.00
2043, 2679.00
2044, 2679.00
2045, 2679.00
2046, 2683.00
2047, 2682.00
2048, 2683.00
2049, 2685.00
2050, 2683.00
2051, 2686.00
2052, 2687.00
2053, 2689.00
2054, 2689.00
2055, 2690.00
2056, 2691.00
2057, 2692.00
2058, 2692.00
2059, 2695.00
2060, 2695.00
2061, 2697.00
2062, 2697.00
2063, 2699.00
2064, 2698.00
2065, 2700.00
2066, 2701.00
2067, 2703.00
2068, 2706.00
2069, 2704.00
2070, 2707.00
2071, 2707.00
2072, 2707.00
2073, 2709.00
2074, 2709.00
2075, 2711.00
2076, 2711.00
2077, 2713.00
2078, 2715.00
2079, 2716.00
2080, 2716.00
2081, 2715.00
2082, 2719.00
2083, 2720.00
2084, 2718.00
2085, 2720.00
2086, 2721.00
2087, 2721.00
2088, 2723.00
2089, 2724.00
2090, 2725.00
2091, 2725.00
2092, 2725.00
2093, 2725.00
2094, 2729.00
2095, 2730.00
2096, 2728.00
2097, 2729.00
2098, 2730.00
2099, 2730.00
2100, 2732.00
2101, 2731.00
2102, 2732.00
2103, 2734.00
2104, 2734.00
2105, 2735.00
2106, 2735.00
2107, 2735.00
2108, 2735.00
2109, 2737.00
2110, 2738.00
2111, 2738.00
2112, 2739.00
2113, 2740.00
2114, 2741.00
2115, 2739.00
2116, 2740.00
2117, 2741.00
2118, 2739.00
2119, 2743.00
2120, 2742.00
2121, 2742.00
2122, 2744.00
2123, 2744.00
2124, 2743.00
2125, 2743.00
2126, 2744.00
2127, 2747.00
2128, 2745.00
2129, 2746.00
2130, 2747.00
2131, 2746.00
2132, 2749.00
2133, 2747.00
2134, 2747.00
2135, 2749.00
2136, 2751.00
2137, 2748.00
2138, 2748.00
2139, 2749.00
2140, 2752.00
2141, 2749.00
2142, 2751.00
2143, 2753.00
2144, 2751.00
2145, 2751.00
2146, 2751.00
2147, 2752.00
2148, 2752.00
2149, 2752.00
2150, 2753.00
