FW version: 24
Log Version: 3.0.3

General Info:
       Command/Macro Performed,            Timestamp,             Device ID, COM Port, UART/I2C, Test Name, Host Major, Host Minor, Host Revision, Host Git Commit
            Single_measurement,  2023_07_04_11_19_33,       Insight2_F4_xxx,    USB-C,      USB,          ,          0,          1,             1,      4031237645

Show Spectrometer Status:
l0_version, f4_version, battery_perc, battery_mVolt, accelerometer_temp, accelerometer_x, accelerometer_y, accelerometer_z, compass_temp, compass_x, compass_y, compass_z, lamp_0, lamp_1, gain_0, gain_1
        17,         24,           24,          1858,               6144,           64816,            2416,           19268,            0,     65406,     65403,     19293,   3276,   3276,      1,      1

Temperature Statistic Info:
NTC AVG [°C], NTC2 AVG [°C]
      38.595,        38.216

Statistic Info:
M1:  num,      min,      max,   median,      AVG,      STD,M2:  num,      min,      max,   median,      AVG,      STD
     301,  2042.00,  2357.00,  2106.00,  2146.01,  97.8634,     401,  2610.00,  2803.00,  2688.00,  2694.07,  62.9855,

Measurements:
Wavelength, Data Amplitude
1350, 2102.00
1351, 2101.00
1352, 2099.00
1353, 2099.00
1354, 2098.00
1355, 2097.00
1356, 2097.00
1357, 2094.00
1358, 2094.00
1359, 2092.00
1360, 2091.00
1361, 2088.00
1362, 2089.00
1363, 2087.00
1364, 2083.00
1365, 2084.00
1366, 2082.00
1367, 2080.00
1368, 2079.00
1369, 2077.00
1370, 2076.00
1371, 2075.00
1372, 2073.00
1373, 2070.00
1374, 2069.00
1375, 2068.00
1376, 2066.00
1377, 2066.00
1378, 2064.00
1379, 2064.00
1380, 2061.00
1381, 2060.00
1382, 2060.00
1383, 2059.00
1384, 2057.00
1385, 2057.00
1386, 2055.00
1387, 2055.00
1388, 2053.00
1389, 2054.00
1390, 2052.00
1391, 2051.00
1392, 2049.00
1393, 2051.00
1394, 2050.00
1395, 2050.00
1396, 2049.00
1397, 2048.00
1398, 2047.00
1399, 2047.00
1400, 2045.00
1401, 2047.00
1402, 2045.00
1403, 2045.00
1404, 2044.00
1405, 2046.00
1406, 2044.00
1407, 2045.00
1408, 2045.00
1409, 2043.00
1410, 2043.00
1411, 2043.00
1412, 2044.00
1413, 2043.00
1414, 2043.00
1415, 2043.00
1416, 2043.00
1417, 2043.00
1418, 2043.00
1419, 2043.00
1420, 2043.00
1421, 2043.00
1422, 2043.00
1423, 2042.00
1424, 2043.00
1425, 2043.00
1426, 2043.00
1427, 2042.00
1428, 2043.00
1429, 2044.00
1430, 2043.00
1431, 2044.00
1432, 2044.00
1433, 2045.00
1434, 2046.00
1435, 2045.00
1436, 2045.00
1437, 2047.00
1438, 2049.00
1439, 2047.00
1440, 2049.00
1441, 2049.00
1442, 2049.00
1443, 2049.00
1444, 2050.00
1445, 2051.00
1446, 2051.00
1447, 2052.00
1448, 2052.00
1449, 2053.00
1450, 2055.00
1451, 2053.00
1452, 2055.00
1453, 2056.00
1454, 2057.00
1455, 2057.00
1456, 2058.00
1457, 2058.00
1458, 2060.00
1459, 2061.00
1460, 2061.00
1461, 2061.00
1462, 2063.00
1463, 2063.00
1464, 2064.00
1465, 2064.00
1466, 2066.00
1467, 2067.00
1468, 2068.00
1469, 2069.00
1470, 2070.00
1471, 2071.00
1472, 2073.00
1473, 2074.00
1474, 2075.00
1475, 2075.00
1476, 2077.00
1477, 2078.00
1478, 2080.00
1479, 2080.00
1480, 2080.00
1481, 2083.00
1482, 2082.00
1483, 2084.00
1484, 2086.00
1485, 2088.00
1486, 2088.00
1487, 2090.00
1488, 2092.00
1489, 2092.00
1490, 2095.00
1491, 2096.00
1492, 2096.00
1493, 2099.00
1494, 2099.00
1495, 2099.00
1496, 2101.00
1497, 2103.00
1498, 2105.00
1499, 2105.00
1500, 2106.00
1501, 2108.00
1502, 2108.00
1503, 2110.00
1504, 2112.00
1505, 2114.00
1506, 2114.00
1507, 2115.00
1508, 2118.00
1509, 2118.00
1510, 2119.00
1511, 2121.00
1512, 2122.00
1513, 2124.00
1514, 2127.00
1515, 2127.00
1516, 2129.00
1517, 2130.00
1518, 2131.00
1519, 2133.00
1520, 2134.00
1521, 2136.00
1522, 2137.00
1523, 2138.00
1524, 2140.00
1525, 2143.00
1526, 2144.00
1527, 2146.00
1528, 2147.00
1529, 2149.00
1530, 2150.00
1531, 2150.00
1532, 2152.00
1533, 2154.00
1534, 2155.00
1535, 2158.00
1536, 2159.00
1537, 2161.00
1538, 2162.00
1539, 2164.00
1540, 2165.00
1541, 2168.00
1542, 2170.00
1543, 2172.00
1544, 2173.00
1545, 2174.00
1546, 2175.00
1547, 2177.00
1548, 2178.00
1549, 2182.00
1550, 2181.00
1551, 2184.00
1552, 2185.00
1553, 2188.00
1554, 2189.00
1555, 2190.00
1556, 2192.00
1557, 2193.00
1558, 2197.00
1559, 2199.00
1560, 2200.00
1561, 2201.00
1562, 2203.00
1563, 2205.00
1564, 2208.00
1565, 2209.00
1566, 2211.00
1567, 2211.00
1568, 2214.00
1569, 2215.00
1570, 2217.00
1571, 2220.00
1572, 2222.00
1573, 2222.00
1574, 2225.00
1575, 2227.00
1576, 2228.00
1577, 2231.00
1578, 2231.00
1579, 2234.00
1580, 2236.00
1581, 2236.00
1582, 2238.00
1583, 2241.00
1584, 2242.00
1585, 2243.00
1586, 2244.00
1587, 2247.00
1588, 2247.00
1589, 2249.00
1590, 2251.00
1591, 2253.00
1592, 2253.00
1593, 2255.00
1594, 2257.00
1595, 2259.00
1596, 2260.00
1597, 2261.00
1598, 2263.00
1599, 2264.00
1600, 2266.00
1601, 2267.00
1602, 2269.00
1603, 2271.00
1604, 2272.00
1605, 2275.00
1606, 2278.00
1607, 2279.00
1608, 2280.00
1609, 2282.00
1610, 2285.00
1611, 2286.00
1612, 2287.00
1613, 2291.00
1614, 2293.00
1615, 2295.00
1616, 2296.00
1617, 2299.00
1618, 2300.00
1619, 2301.00
1620, 2303.00
1621, 2306.00
1622, 2308.00
1623, 2310.00
1624, 2312.00
1625, 2314.00
1626, 2315.00
1627, 2317.00
1628, 2320.00
1629, 2323.00
1630, 2323.00
1631, 2325.00
1632, 2327.00
1633, 2330.00
1634, 2330.00
1635, 2333.00
1636, 2334.00
1637, 2337.00
1638, 2336.00
1639, 2339.00
1640, 2341.00
1641, 2342.00
1642, 2344.00
1643, 2345.00
1644, 2348.00
1645, 2348.00
1646, 2350.00
1647, 2352.00
1648, 2353.00
1649, 2354.00
1650, 2357.00

1750, 2799.00
1751, 2803.00
1752, 2802.00
1753, 2800.00
1754, 2801.00
1755, 2800.00
1756, 2802.00
1757, 2801.00
1758, 2801.00
1759, 2801.00
1760, 2801.00
1761, 2803.00
1762, 2800.00
1763, 2801.00
1764, 2801.00
1765, 2799.00
1766, 2802.00
1767, 2799.00
1768, 2800.00
1769, 2799.00
1770, 2800.00
1771, 2797.00
1772, 2797.00
1773, 2795.00
1774, 2798.00
1775, 2795.00
1776, 2796.00
1777, 2797.00
1778, 2794.00
1779, 2794.00
1780, 2796.00
1781, 2792.00
1782, 2793.00
1783, 2791.00
1784, 2791.00
1785, 2790.00
1786, 2790.00
1787, 2788.00
1788, 2789.00
1789, 2786.00
1790, 2786.00
1791, 2786.00
1792, 2784.00
1793, 2783.00
1794, 2785.00
1795, 2784.00
1796, 2783.00
1797, 2782.00
1798, 2783.00
1799, 2782.00
1800, 2781.00
1801, 2777.00
1802, 2779.00
1803, 2779.00
1804, 2779.00
1805, 2778.00
1806, 2777.00
1807, 2777.00
1808, 2777.00
1809, 2775.00
1810, 2775.00
1811, 2773.00
1812, 2771.00
1813, 2770.00
1814, 2772.00
1815, 2770.00
1816, 2768.00
1817, 2769.00
1818, 2768.00
1819, 2765.00
1820, 2765.00
1821, 2764.00
1822, 2765.00
1823, 2762.00
1824, 2760.00
1825, 2760.00
1826, 2759.00
1827, 2756.00
1828, 2753.00
1829, 2752.00
1830, 2751.00
1831, 2747.00
1832, 2746.00
1833, 2744.00
1834, 2740.00
1835, 2739.00
1836, 2738.00
1837, 2733.00
1838, 2733.00
1839, 2729.00
1840, 2729.00
1841, 2724.00
1842, 2722.00
1843, 2719.00
1844, 2715.00
1845, 2712.00
1846, 2711.00
1847, 2708.00
1848, 2704.00
1849, 2701.00
1850, 2697.00
1851, 2697.00
1852, 2692.00
1853, 2691.00
1854, 2687.00
1855, 2683.00
1856, 2681.00
1857, 2679.00
1858, 2676.00
1859, 2672.00
1860, 2671.00
1861, 2666.00
1862, 2663.00
1863, 2663.00
1864, 2658.00
1865, 2656.00
1866, 2655.00
1867, 2651.00
1868, 2649.00
1869, 2648.00
1870, 2647.00
1871, 2646.00
1872, 2643.00
1873, 2642.00
1874, 2642.00
1875, 2638.00
1876, 2638.00
1877, 2635.00
1878, 2633.00
1879, 2634.00
1880, 2632.00
1881, 2631.00
1882, 2632.00
1883, 2628.00
1884, 2628.00
1885, 2627.00
1886, 2627.00
1887, 2627.00
1888, 2624.00
1889, 2626.00
1890, 2623.00
1891, 2623.00
1892, 2622.00
1893, 2623.00
1894, 2621.00
1895, 2619.00
1896, 2619.00
1897, 2620.00
1898, 2615.00
1899, 2618.00
1900, 2618.00
1901, 2618.00
1902, 2616.00
1903, 2616.00
1904, 2616.00
1905, 2616.00
1906, 2614.00
1907, 2617.00
1908, 2616.00
1909, 2614.00
1910, 2614.00
1911, 2613.00
1912, 2613.00
1913, 2613.00
1914, 2613.00
1915, 2613.00
1916, 2613.00
1917, 2611.00
1918, 2613.00
1919, 2612.00
1920, 2611.00
1921, 2612.00
1922, 2611.00
1923, 2612.00
1924, 2612.00
1925, 2611.00
1926, 2610.00
1927, 2612.00
1928, 2611.00
1929, 2612.00
1930, 2611.00
1931, 2612.00
1932, 2612.00
1933, 2611.00
1934, 2611.00
1935, 2612.00
1936, 2613.00
1937, 2613.00
1938, 2614.00
1939, 2613.00
1940, 2612.00
1941, 2612.00
1942, 2614.00
1943, 2613.00
1944, 2613.00
1945, 2612.00
1946, 2613.00
1947, 2616.00
1948, 2615.00
1949, 2616.00
1950, 2614.00
1951, 2616.00
1952, 2617.00
1953, 2618.00
1954, 2618.00
1955, 2617.00
1956, 2616.00
1957, 2618.00
1958, 2622.00
1959, 2621.00
1960, 2620.00
1961, 2620.00
1962, 2622.00
1963, 2620.00
1964, 2623.00
1965, 2620.00
1966, 2623.00
1967, 2624.00
1968, 2624.00
1969, 2624.00
1970, 2625.00
1971, 2627.00
1972, 2627.00
1973, 2629.00
1974, 2629.00
1975, 2630.00
1976, 2630.00
1977, 2630.00
1978, 2631.00
1979, 2632.00
1980, 2633.00
1981, 2633.00
1982, 2633.00
1983, 2633.00
1984, 2637.00
1985, 2635.00
1986, 2638.00
1987, 2638.00
1988, 2638.00
1989, 2639.00
1990, 2640.00
1991, 2640.00
1992, 2641.00
1993, 2640.00
1994, 2643.00
1995, 2643.00
1996, 2643.00
1997, 2645.00
1998, 2645.00
1999, 2645.00
2000, 2646.00
2001, 2648.00
2002, 2647.00
2003, 2647.00
2004, 2649.00
2005, 2649.00
2006, 2650.00
2007, 2650.00
2008, 2652.00
2009, 2651.00
2010, 2652.00
2011, 2654.00
2012, 2655.00
2013, 2653.00
2014, 2655.00
2015, 2654.00
2016, 2656.00
2017, 2656.00
2018, 2658.00
2019, 2660.00
2020, 2661.00
2021, 2660.00
2022, 2661.00
2023, 2663.00
2024, 2662.00
2025, 2663.00
2026, 2664.00
2027, 2665.00
2028, 2665.00
2029, 2666.00
2030, 2669.00
2031, 2668.00
2032, 2668.00
2033, 2669.00
2034, 2671.00
2035, 2671.00
2036, 2670.00
2037, 2671.00
2038, 2673.00
2039, 2675.00
2040, 2676.00
2041, 2676.00
2042, 2676.00
2043, 2677.00
2044, 2678.00
2045, 2681.00
2046, 2680.00
2047, 2681.00
2048, 2683.00
2049, 2683.00
2050, 2685.00
2051, 2685.00
2052, 2687.00
2053, 2687.00
2054, 2688.00
2055, 2691.00
2056, 2691.00
2057, 2690.00
2058, 2692.00
2059, 2693.00
2060, 2695.00
2061, 2697.00
2062, 2697.00
2063, 2699.00
2064, 2697.00
2065, 2700.00
2066, 2701.00
2067, 2703.00
2068, 2703.00
2069, 2705.00
2070, 2704.00
2071, 2707.00
2072, 2707.00
2073, 2710.00
2074, 2709.00
2075, 2711.00
2076, 2712.00
2077, 2711.00
2078, 2713.00
2079, 2713.00
2080, 2715.00
2081, 2717.00
2082, 2717.00
2083, 2719.00
2084, 2718.00
2085, 2721.00
2086, 2720.00
2087, 2722.00
2088, 2722.00
2089, 2723.00
2090, 2723.00
2091, 2725.00
2092, 2727.00
2093, 2727.00
2094, 2728.00
2095, 2728.00
2096, 2727.00
2097, 2729.00
2098, 2729.00
2099, 2730.00
2100, 2733.00
2101, 2733.00
2102, 2734.00
2103, 2732.00
2104, 2733.00
2105, 2734.00
2106, 2735.00
2107, 2735.00
2108, 2736.00
2109, 2738.00
2110, 2738.00
2111, 2737.00
2112, 2738.00
2113, 2737.00
2114, 2739.00
2115, 2740.00
2116, 2740.00
2117, 2741.00
2118, 2740.00
2119, 2743.00
2120, 2741.00
2121, 2741.00
2122, 2742.00
2123, 2742.00
2124, 2744.00
2125, 2744.00
2126, 2745.00
2127, 2744.00
2128, 2745.00
2129, 2747.00
2130, 2744.00
2131, 2745.00
2132, 2747.00
2133, 2748.00
2134, 2747.00
2135, 2748.00
2136, 2748.00
2137, 2749.00
2138, 2751.00
2139, 2749.00
2140, 2750.00
2141, 2750.00
2142, 2750.00
2143, 2752.00
2144, 2750.00
2145, 2751.00
2146, 2751.00
2147, 2751.00
2148, 2753.00
2149, 2755.00
2150, 2753.00
