FW version: 24
Log Version: 3.0.3

General Info:
       Command/Macro Performed,            Timestamp,             Device ID, COM Port, UART/I2C, Test Name, Host Major, Host Minor, Host Revision, Host Git Commit
            Single_measurement,  2023_06_30_11_35_01,       Insight2_F4_xxx,    USB-C,      USB,          ,          0,          1,             1,      4031237645

Show Spectrometer Status:
l0_version, f4_version, battery_perc, battery_mVolt, accelerometer_temp, accelerometer_x, accelerometer_y, accelerometer_z, compass_temp, compass_x, compass_y, compass_z, lamp_0, lamp_1, gain_0, gain_1
        17,         24,           95,          2078,               6224,           65372,             436,           18520,            0,     65375,     65535,     18525,   3276,   3276,      1,      1

Temperature Statistic Info:
NTC AVG [°C], NTC2 AVG [°C]
      39.646,        39.175

Statistic Info:
M1:  num,      min,      max,   median,      AVG,      STD,M2:  num,      min,      max,   median,      AVG,      STD
     301,  2072.00,  2387.00,  2136.00,  2175.52,  97.8015,     401,  2652.00,  2843.00,  2728.00,  2734.67,  62.2516,

Measurements:
Wavelength, Data Amplitude
1350, 2132.00
1351, 2132.00
1352, 2131.00
1353, 2129.00
1354, 2128.00
1355, 2128.00
1356, 2128.00
1357, 2124.00
1358, 2124.00
1359, 2122.00
1360, 2122.00
1361, 2120.00
1362, 2118.00
1363, 2115.00
1364, 2114.00
1365, 2113.00
1366, 2111.00
1367, 2110.00
1368, 2108.00
1369, 2107.00
1370, 2105.00
1371, 2104.00
1372, 2102.00
1373, 2100.00
1374, 2099.00
1375, 2098.00
1376, 2095.00
1377, 2094.00
1378, 2093.00
1379, 2092.00
1380, 2091.00
1381, 2089.00
1382, 2089.00
1383, 2087.00
1384, 2087.00
1385, 2086.00
1386, 2085.00
1387, 2083.00
1388, 2083.00
1389, 2082.00
1390, 2081.00
1391, 2081.00
1392, 2081.00
1393, 2081.00
1394, 2078.00
1395, 2078.00
1396, 2077.00
1397, 2077.00
1398, 2079.00
1399, 2078.00
1400, 2077.00
1401, 2077.00
1402, 2076.00
1403, 2075.00
1404, 2075.00
1405, 2075.00
1406, 2074.00
1407, 2074.00
1408, 2074.00
1409, 2075.00
1410, 2073.00
1411, 2073.00
1412, 2073.00
1413, 2073.00
1414, 2073.00
1415, 2073.00
1416, 2072.00
1417, 2073.00
1418, 2072.00
1419, 2073.00
1420, 2074.00
1421, 2073.00
1422, 2073.00
1423, 2073.00
1424, 2072.00
1425, 2073.00
1426, 2073.00
1427, 2073.00
1428, 2073.00
1429, 2075.00
1430, 2074.00
1431, 2074.00
1432, 2074.00
1433, 2075.00
1434, 2074.00
1435, 2076.00
1436, 2076.00
1437, 2077.00
1438, 2077.00
1439, 2078.00
1440, 2077.00
1441, 2078.00
1442, 2079.00
1443, 2079.00
1444, 2079.00
1445, 2081.00
1446, 2080.00
1447, 2082.00
1448, 2081.00
1449, 2084.00
1450, 2083.00
1451, 2085.00
1452, 2083.00
1453, 2084.00
1454, 2086.00
1455, 2087.00
1456, 2087.00
1457, 2088.00
1458, 2088.00
1459, 2089.00
1460, 2090.00
1461, 2091.00
1462, 2093.00
1463, 2093.00
1464, 2094.00
1465, 2094.00
1466, 2095.00
1467, 2097.00
1468, 2096.00
1469, 2098.00
1470, 2099.00
1471, 2102.00
1472, 2102.00
1473, 2103.00
1474, 2104.00
1475, 2105.00
1476, 2106.00
1477, 2107.00
1478, 2108.00
1479, 2109.00
1480, 2111.00
1481, 2111.00
1482, 2113.00
1483, 2115.00
1484, 2116.00
1485, 2117.00
1486, 2118.00
1487, 2121.00
1488, 2120.00
1489, 2122.00
1490, 2123.00
1491, 2125.00
1492, 2124.00
1493, 2127.00
1494, 2129.00
1495, 2130.00
1496, 2130.00
1497, 2133.00
1498, 2133.00
1499, 2135.00
1500, 2136.00
1501, 2138.00
1502, 2138.00
1503, 2140.00
1504, 2141.00
1505, 2143.00
1506, 2143.00
1507, 2146.00
1508, 2146.00
1509, 2147.00
1510, 2149.00
1511, 2151.00
1512, 2152.00
1513, 2153.00
1514, 2155.00
1515, 2155.00
1516, 2159.00
1517, 2159.00
1518, 2161.00
1519, 2162.00
1520, 2164.00
1521, 2165.00
1522, 2168.00
1523, 2168.00
1524, 2170.00
1525, 2172.00
1526, 2172.00
1527, 2174.00
1528, 2176.00
1529, 2177.00
1530, 2178.00
1531, 2180.00
1532, 2182.00
1533, 2184.00
1534, 2186.00
1535, 2187.00
1536, 2189.00
1537, 2190.00
1538, 2191.00
1539, 2194.00
1540, 2195.00
1541, 2197.00
1542, 2198.00
1543, 2199.00
1544, 2201.00
1545, 2202.00
1546, 2204.00
1547, 2206.00
1548, 2208.00
1549, 2209.00
1550, 2212.00
1551, 2213.00
1552, 2215.00
1553, 2216.00
1554, 2217.00
1555, 2219.00
1556, 2221.00
1557, 2224.00
1558, 2225.00
1559, 2227.00
1560, 2228.00
1561, 2231.00
1562, 2233.00
1563, 2234.00
1564, 2236.00
1565, 2239.00
1566, 2239.00
1567, 2241.00
1568, 2243.00
1569, 2246.00
1570, 2248.00
1571, 2249.00
1572, 2251.00
1573, 2252.00
1574, 2254.00
1575, 2256.00
1576, 2258.00
1577, 2260.00
1578, 2261.00
1579, 2262.00
1580, 2265.00
1581, 2266.00
1582, 2268.00
1583, 2269.00
1584, 2270.00
1585, 2272.00
1586, 2273.00
1587, 2275.00
1588, 2277.00
1589, 2280.00
1590, 2280.00
1591, 2282.00
1592, 2283.00
1593, 2285.00
1594, 2286.00
1595, 2288.00
1596, 2288.00
1597, 2292.00
1598, 2292.00
1599, 2294.00
1600, 2296.00
1601, 2297.00
1602, 2299.00
1603, 2301.00
1604, 2304.00
1605, 2304.00
1606, 2307.00
1607, 2309.00
1608, 2309.00
1609, 2312.00
1610, 2314.00
1611, 2316.00
1612, 2317.00
1613, 2319.00
1614, 2321.00
1615, 2324.00
1616, 2326.00
1617, 2328.00
1618, 2329.00
1619, 2333.00
1620, 2335.00
1621, 2336.00
1622, 2338.00
1623, 2340.00
1624, 2341.00
1625, 2343.00
1626, 2345.00
1627, 2348.00
1628, 2350.00
1629, 2351.00
1630, 2354.00
1631, 2354.00
1632, 2356.00
1633, 2359.00
1634, 2359.00
1635, 2363.00
1636, 2364.00
1637, 2365.00
1638, 2367.00
1639, 2368.00
1640, 2371.00
1641, 2371.00
1642, 2372.00
1643, 2375.00
1644, 2377.00
1645, 2378.00
1646, 2380.00
1647, 2381.00
1648, 2383.00
1649, 2384.00
1650, 2387.00

1750, 2841.00
1751, 2840.00
1752, 2843.00
1753, 2841.00
1754, 2843.00
1755, 2842.00
1756, 2842.00
1757, 2841.00
1758, 2841.00
1759, 2841.00
1760, 2841.00
1761, 2841.00
1762, 2842.00
1763, 2839.00
1764, 2842.00
1765, 2839.00
1766, 2840.00
1767, 2838.00
1768, 2839.00
1769, 2839.00
1770, 2840.00
1771, 2839.00
1772, 2841.00
1773, 2837.00
1774, 2836.00
1775, 2837.00
1776, 2835.00
1777, 2836.00
1778, 2835.00
1779, 2832.00
1780, 2832.00
1781, 2832.00
1782, 2832.00
1783, 2830.00
1784, 2829.00
1785, 2829.00
1786, 2829.00
1787, 2828.00
1788, 2826.00
1789, 2828.00
1790, 2828.00
1791, 2825.00
1792, 2826.00
1793, 2825.00
1794, 2824.00
1795, 2824.00
1796, 2823.00
1797, 2821.00
1798, 2822.00
1799, 2819.00
1800, 2820.00
1801, 2819.00
1802, 2819.00
1803, 2818.00
1804, 2818.00
1805, 2818.00
1806, 2815.00
1807, 2816.00
1808, 2815.00
1809, 2815.00
1810, 2814.00
1811, 2812.00
1812, 2813.00
1813, 2813.00
1814, 2811.00
1815, 2810.00
1816, 2809.00
1817, 2807.00
1818, 2808.00
1819, 2807.00
1820, 2801.00
1821, 2803.00
1822, 2802.00
1823, 2801.00
1824, 2799.00
1825, 2798.00
1826, 2795.00
1827, 2796.00
1828, 2792.00
1829, 2793.00
1830, 2791.00
1831, 2787.00
1832, 2786.00
1833, 2782.00
1834, 2782.00
1835, 2780.00
1836, 2776.00
1837, 2773.00
1838, 2771.00
1839, 2768.00
1840, 2766.00
1841, 2763.00
1842, 2761.00
1843, 2757.00
1844, 2755.00
1845, 2751.00
1846, 2750.00
1847, 2745.00
1848, 2743.00
1849, 2737.00
1850, 2737.00
1851, 2734.00
1852, 2731.00
1853, 2726.00
1854, 2726.00
1855, 2721.00
1856, 2719.00
1857, 2717.00
1858, 2713.00
1859, 2711.00
1860, 2709.00
1861, 2707.00
1862, 2703.00
1863, 2700.00
1864, 2698.00
1865, 2698.00
1866, 2696.00
1867, 2691.00
1868, 2691.00
1869, 2689.00
1870, 2686.00
1871, 2685.00
1872, 2684.00
1873, 2681.00
1874, 2681.00
1875, 2680.00
1876, 2678.00
1877, 2675.00
1878, 2676.00
1879, 2674.00
1880, 2676.00
1881, 2672.00
1882, 2671.00
1883, 2673.00
1884, 2669.00
1885, 2668.00
1886, 2668.00
1887, 2667.00
1888, 2665.00
1889, 2665.00
1890, 2663.00
1891, 2664.00
1892, 2665.00
1893, 2663.00
1894, 2664.00
1895, 2663.00
1896, 2660.00
1897, 2661.00
1898, 2661.00
1899, 2659.00
1900, 2659.00
1901, 2657.00
1902, 2660.00
1903, 2658.00
1904, 2660.00
1905, 2657.00
1906, 2657.00
1907, 2655.00
1908, 2658.00
1909, 2656.00
1910, 2654.00
1911, 2656.00
1912, 2655.00
1913, 2655.00
1914, 2653.00
1915, 2655.00
1916, 2655.00
1917, 2654.00
1918, 2653.00
1919, 2654.00
1920, 2656.00
1921, 2653.00
1922, 2654.00
1923, 2654.00
1924, 2653.00
1925, 2653.00
1926, 2653.00
1927, 2655.00
1928, 2653.00
1929, 2653.00
1930, 2654.00
1931, 2653.00
1932, 2655.00
1933, 2654.00
1934, 2652.00
1935, 2654.00
1936, 2656.00
1937, 2652.00
1938, 2654.00
1939, 2655.00
1940, 2655.00
1941, 2655.00
1942, 2656.00
1943, 2656.00
1944, 2657.00
1945, 2655.00
1946, 2657.00
1947, 2658.00
1948, 2657.00
1949, 2656.00
1950, 2657.00
1951, 2658.00
1952, 2656.00
1953, 2660.00
1954, 2660.00
1955, 2661.00
1956, 2660.00
1957, 2658.00
1958, 2662.00
1959, 2662.00
1960, 2663.00
1961, 2663.00
1962, 2663.00
1963, 2665.00
1964, 2664.00
1965, 2665.00
1966, 2664.00
1967, 2666.00
1968, 2664.00
1969, 2668.00
1970, 2667.00
1971, 2668.00
1972, 2669.00
1973, 2671.00
1974, 2670.00
1975, 2671.00
1976, 2673.00
1977, 2671.00
1978, 2671.00
1979, 2674.00
1980, 2673.00
1981, 2674.00
1982, 2674.00
1983, 2675.00
1984, 2677.00
1985, 2676.00
1986, 2677.00
1987, 2681.00
1988, 2680.00
1989, 2681.00
1990, 2680.00
1991, 2680.00
1992, 2681.00
1993, 2681.00
1994, 2683.00
1995, 2685.00
1996, 2685.00
1997, 2685.00
1998, 2687.00
1999, 2688.00
2000, 2687.00
2001, 2688.00
2002, 2690.00
2003, 2688.00
2004, 2690.00
2005, 2691.00
2006, 2690.00
2007, 2691.00
2008, 2693.00
2009, 2693.00
2010, 2695.00
2011, 2694.00
2012, 2695.00
2013, 2697.00
2014, 2697.00
2015, 2697.00
2016, 2698.00
2017, 2698.00
2018, 2698.00
2019, 2698.00
2020, 2701.00
2021, 2701.00
2022, 2703.00
2023, 2702.00
2024, 2703.00
2025, 2703.00
2026, 2707.00
2027, 2705.00
2028, 2706.00
2029, 2707.00
2030, 2708.00
2031, 2708.00
2032, 2709.00
2033, 2712.00
2034, 2710.00
2035, 2711.00
2036, 2713.00
2037, 2713.00
2038, 2713.00
2039, 2717.00
2040, 2716.00
2041, 2715.00
2042, 2718.00
2043, 2718.00
2044, 2720.00
2045, 2718.00
2046, 2722.00
2047, 2723.00
2048, 2721.00
2049, 2725.00
2050, 2724.00
2051, 2727.00
2052, 2727.00
2053, 2729.00
2054, 2728.00
2055, 2730.00
2056, 2733.00
2057, 2734.00
2058, 2733.00
2059, 2734.00
2060, 2735.00
2061, 2737.00
2062, 2739.00
2063, 2741.00
2064, 2740.00
2065, 2741.00
2066, 2742.00
2067, 2743.00
2068, 2743.00
2069, 2746.00
2070, 2746.00
2071, 2747.00
2072, 2748.00
2073, 2750.00
2074, 2750.00
2075, 2750.00
2076, 2752.00
2077, 2754.00
2078, 2754.00
2079, 2753.00
2080, 2755.00
2081, 2758.00
2082, 2757.00
2083, 2758.00
2084, 2758.00
2085, 2761.00
2086, 2762.00
2087, 2763.00
2088, 2763.00
2089, 2765.00
2090, 2763.00
2091, 2766.00
2092, 2767.00
2093, 2766.00
2094, 2766.00
2095, 2769.00
2096, 2772.00
2097, 2771.00
2098, 2769.00
2099, 2771.00
2100, 2772.00
2101, 2773.00
2102, 2772.00
2103, 2774.00
2104, 2774.00
2105, 2774.00
2106, 2775.00
2107, 2776.00
2108, 2776.00
2109, 2777.00
2110, 2778.00
2111, 2777.00
2112, 2779.00
2113, 2779.00
2114, 2779.00
2115, 2779.00
2116, 2778.00
2117, 2780.00
2118, 2781.00
2119, 2781.00
2120, 2783.00
2121, 2783.00
2122, 2782.00
2123, 2782.00
2124, 2783.00
2125, 2783.00
2126, 2783.00
2127, 2786.00
2128, 2785.00
2129, 2787.00
2130, 2785.00
2131, 2787.00
2132, 2787.00
2133, 2788.00
2134, 2786.00
2135, 2790.00
2136, 2786.00
2137, 2788.00
2138, 2789.00
2139, 2789.00
2140, 2791.00
2141, 2791.00
2142, 2792.00
2143, 2791.00
2144, 2791.00
2145, 2792.00
2146, 2792.00
2147, 2793.00
2148, 2793.00
2149, 2793.00
2150, 2795.00
