FW version: 24
Log Version: 3.0.3

General Info:
       Command/Macro Performed,            Timestamp,             Device ID, COM Port, UART/I2C, Test Name, Host Major, Host Minor, Host Revision, Host Git Commit
            Single_measurement,  2023_06_30_11_34_57,       Insight2_F4_xxx,    USB-C,      USB,          ,          0,          1,             1,      4031237645

Show Spectrometer Status:
l0_version, f4_version, battery_perc, battery_mVolt, accelerometer_temp, accelerometer_x, accelerometer_y, accelerometer_z, compass_temp, compass_x, compass_y, compass_z, lamp_0, lamp_1, gain_0, gain_1
        17,         24,           95,          2079,               6224,           65292,             364,           18616,            0,     65356,     65389,     18621,   3276,   3276,      1,      1

Temperature Statistic Info:
NTC AVG [°C], NTC2 AVG [°C]
      39.500,        39.145

Statistic Info:
M1:  num,      min,      max,   median,      AVG,      STD,M2:  num,      min,      max,   median,      AVG,      STD
     301,  2072.00,  2387.00,  2136.00,  2175.86,  97.7602,     401,  2652.00,  2846.00,  2728.00,  2735.27,  62.3752,

Measurements:
Wavelength, Data Amplitude
1350, 2133.00
1351, 2133.00
1352, 2131.00
1353, 2130.00
1354, 2128.00
1355, 2127.00
1356, 2127.00
1357, 2126.00
1358, 2124.00
1359, 2121.00
1360, 2122.00
1361, 2120.00
1362, 2119.00
1363, 2117.00
1364, 2114.00
1365, 2113.00
1366, 2112.00
1367, 2110.00
1368, 2109.00
1369, 2107.00
1370, 2106.00
1371, 2104.00
1372, 2102.00
1373, 2100.00
1374, 2100.00
1375, 2098.00
1376, 2095.00
1377, 2094.00
1378, 2093.00
1379, 2093.00
1380, 2091.00
1381, 2090.00
1382, 2090.00
1383, 2088.00
1384, 2088.00
1385, 2085.00
1386, 2085.00
1387, 2085.00
1388, 2083.00
1389, 2083.00
1390, 2082.00
1391, 2081.00
1392, 2080.00
1393, 2080.00
1394, 2080.00
1395, 2080.00
1396, 2079.00
1397, 2077.00
1398, 2077.00
1399, 2077.00
1400, 2077.00
1401, 2077.00
1402, 2077.00
1403, 2075.00
1404, 2076.00
1405, 2076.00
1406, 2075.00
1407, 2076.00
1408, 2075.00
1409, 2074.00
1410, 2075.00
1411, 2074.00
1412, 2074.00
1413, 2074.00
1414, 2072.00
1415, 2074.00
1416, 2073.00
1417, 2073.00
1418, 2074.00
1419, 2073.00
1420, 2073.00
1421, 2073.00
1422, 2074.00
1423, 2073.00
1424, 2073.00
1425, 2074.00
1426, 2074.00
1427, 2074.00
1428, 2074.00
1429, 2075.00
1430, 2074.00
1431, 2074.00
1432, 2075.00
1433, 2075.00
1434, 2074.00
1435, 2076.00
1436, 2077.00
1437, 2077.00
1438, 2077.00
1439, 2079.00
1440, 2078.00
1441, 2079.00
1442, 2080.00
1443, 2080.00
1444, 2081.00
1445, 2081.00
1446, 2082.00
1447, 2083.00
1448, 2084.00
1449, 2082.00
1450, 2083.00
1451, 2084.00
1452, 2085.00
1453, 2086.00
1454, 2086.00
1455, 2088.00
1456, 2087.00
1457, 2087.00
1458, 2089.00
1459, 2091.00
1460, 2091.00
1461, 2093.00
1462, 2092.00
1463, 2094.00
1464, 2094.00
1465, 2094.00
1466, 2096.00
1467, 2098.00
1468, 2098.00
1469, 2099.00
1470, 2101.00
1471, 2100.00
1472, 2101.00
1473, 2103.00
1474, 2105.00
1475, 2104.00
1476, 2106.00
1477, 2107.00
1478, 2109.00
1479, 2109.00
1480, 2110.00
1481, 2112.00
1482, 2113.00
1483, 2116.00
1484, 2116.00
1485, 2117.00
1486, 2119.00
1487, 2119.00
1488, 2120.00
1489, 2122.00
1490, 2123.00
1491, 2124.00
1492, 2126.00
1493, 2127.00
1494, 2127.00
1495, 2130.00
1496, 2131.00
1497, 2131.00
1498, 2134.00
1499, 2134.00
1500, 2136.00
1501, 2137.00
1502, 2139.00
1503, 2139.00
1504, 2140.00
1505, 2144.00
1506, 2145.00
1507, 2145.00
1508, 2146.00
1509, 2148.00
1510, 2149.00
1511, 2150.00
1512, 2152.00
1513, 2154.00
1514, 2155.00
1515, 2155.00
1516, 2157.00
1517, 2159.00
1518, 2161.00
1519, 2162.00
1520, 2163.00
1521, 2165.00
1522, 2167.00
1523, 2169.00
1524, 2169.00
1525, 2172.00
1526, 2173.00
1527, 2175.00
1528, 2176.00
1529, 2178.00
1530, 2179.00
1531, 2181.00
1532, 2183.00
1533, 2185.00
1534, 2185.00
1535, 2187.00
1536, 2189.00
1537, 2191.00
1538, 2193.00
1539, 2194.00
1540, 2196.00
1541, 2197.00
1542, 2199.00
1543, 2201.00
1544, 2201.00
1545, 2203.00
1546, 2205.00
1547, 2205.00
1548, 2208.00
1549, 2210.00
1550, 2211.00
1551, 2213.00
1552, 2215.00
1553, 2217.00
1554, 2219.00
1555, 2219.00
1556, 2222.00
1557, 2224.00
1558, 2225.00
1559, 2227.00
1560, 2230.00
1561, 2231.00
1562, 2232.00
1563, 2233.00
1564, 2236.00
1565, 2238.00
1566, 2240.00
1567, 2242.00
1568, 2244.00
1569, 2245.00
1570, 2248.00
1571, 2249.00
1572, 2250.00
1573, 2253.00
1574, 2254.00
1575, 2255.00
1576, 2258.00
1577, 2259.00
1578, 2261.00
1579, 2262.00
1580, 2265.00
1581, 2266.00
1582, 2267.00
1583, 2269.00
1584, 2271.00
1585, 2273.00
1586, 2273.00
1587, 2276.00
1588, 2277.00
1589, 2279.00
1590, 2280.00
1591, 2283.00
1592, 2283.00
1593, 2284.00
1594, 2287.00
1595, 2288.00
1596, 2290.00
1597, 2291.00
1598, 2293.00
1599, 2295.00
1600, 2295.00
1601, 2299.00
1602, 2300.00
1603, 2301.00
1604, 2304.00
1605, 2305.00
1606, 2307.00
1607, 2309.00
1608, 2311.00
1609, 2313.00
1610, 2314.00
1611, 2316.00
1612, 2318.00
1613, 2320.00
1614, 2322.00
1615, 2325.00
1616, 2326.00
1617, 2328.00
1618, 2330.00
1619, 2332.00
1620, 2335.00
1621, 2336.00
1622, 2338.00
1623, 2340.00
1624, 2343.00
1625, 2344.00
1626, 2346.00
1627, 2348.00
1628, 2350.00
1629, 2351.00
1630, 2353.00
1631, 2355.00
1632, 2357.00
1633, 2359.00
1634, 2359.00
1635, 2363.00
1636, 2364.00
1637, 2366.00
1638, 2368.00
1639, 2369.00
1640, 2371.00
1641, 2373.00
1642, 2373.00
1643, 2375.00
1644, 2376.00
1645, 2379.00
1646, 2380.00
1647, 2381.00
1648, 2383.00
1649, 2385.00
1650, 2387.00

1750, 2841.00
1751, 2846.00
1752, 2844.00
1753, 2843.00
1754, 2844.00
1755, 2841.00
1756, 2842.00
1757, 2842.00
1758, 2843.00
1759, 2841.00
1760, 2842.00
1761, 2840.00
1762, 2842.00
1763, 2841.00
1764, 2841.00
1765, 2842.00
1766, 2841.00
1767, 2839.00
1768, 2841.00
1769, 2840.00
1770, 2838.00
1771, 2839.00
1772, 2839.00
1773, 2838.00
1774, 2837.00
1775, 2837.00
1776, 2835.00
1777, 2836.00
1778, 2836.00
1779, 2833.00
1780, 2833.00
1781, 2834.00
1782, 2833.00
1783, 2832.00
1784, 2833.00
1785, 2831.00
1786, 2831.00
1787, 2829.00
1788, 2829.00
1789, 2828.00
1790, 2829.00
1791, 2825.00
1792, 2825.00
1793, 2827.00
1794, 2826.00
1795, 2821.00
1796, 2821.00
1797, 2823.00
1798, 2821.00
1799, 2821.00
1800, 2821.00
1801, 2820.00
1802, 2820.00
1803, 2817.00
1804, 2819.00
1805, 2817.00
1806, 2818.00
1807, 2819.00
1808, 2815.00
1809, 2815.00
1810, 2814.00
1811, 2813.00
1812, 2813.00
1813, 2813.00
1814, 2812.00
1815, 2811.00
1816, 2810.00
1817, 2808.00
1818, 2807.00
1819, 2805.00
1820, 2806.00
1821, 2805.00
1822, 2803.00
1823, 2802.00
1824, 2803.00
1825, 2796.00
1826, 2797.00
1827, 2795.00
1828, 2793.00
1829, 2791.00
1830, 2790.00
1831, 2787.00
1832, 2785.00
1833, 2785.00
1834, 2780.00
1835, 2778.00
1836, 2777.00
1837, 2775.00
1838, 2772.00
1839, 2769.00
1840, 2768.00
1841, 2764.00
1842, 2763.00
1843, 2758.00
1844, 2757.00
1845, 2753.00
1846, 2751.00
1847, 2748.00
1848, 2744.00
1849, 2738.00
1850, 2736.00
1851, 2735.00
1852, 2732.00
1853, 2729.00
1854, 2727.00
1855, 2724.00
1856, 2722.00
1857, 2720.00
1858, 2716.00
1859, 2711.00
1860, 2709.00
1861, 2706.00
1862, 2705.00
1863, 2700.00
1864, 2701.00
1865, 2697.00
1866, 2695.00
1867, 2693.00
1868, 2692.00
1869, 2688.00
1870, 2688.00
1871, 2686.00
1872, 2685.00
1873, 2683.00
1874, 2682.00
1875, 2679.00
1876, 2679.00
1877, 2676.00
1878, 2677.00
1879, 2674.00
1880, 2675.00
1881, 2673.00
1882, 2672.00
1883, 2669.00
1884, 2671.00
1885, 2669.00
1886, 2667.00
1887, 2668.00
1888, 2666.00
1889, 2665.00
1890, 2666.00
1891, 2665.00
1892, 2664.00
1893, 2664.00
1894, 2662.00
1895, 2663.00
1896, 2662.00
1897, 2661.00
1898, 2662.00
1899, 2661.00
1900, 2660.00
1901, 2659.00
1902, 2660.00
1903, 2658.00
1904, 2658.00
1905, 2659.00
1906, 2658.00
1907, 2656.00
1908, 2656.00
1909, 2656.00
1910, 2655.00
1911, 2655.00
1912, 2656.00
1913, 2655.00
1914, 2655.00
1915, 2655.00
1916, 2655.00
1917, 2655.00
1918, 2653.00
1919, 2656.00
1920, 2655.00
1921, 2655.00
1922, 2653.00
1923, 2655.00
1924, 2653.00
1925, 2653.00
1926, 2654.00
1927, 2652.00
1928, 2654.00
1929, 2654.00
1930, 2654.00
1931, 2652.00
1932, 2653.00
1933, 2655.00
1934, 2656.00
1935, 2655.00
1936, 2655.00
1937, 2655.00
1938, 2655.00
1939, 2655.00
1940, 2654.00
1941, 2655.00
1942, 2656.00
1943, 2657.00
1944, 2657.00
1945, 2656.00
1946, 2655.00
1947, 2658.00
1948, 2659.00
1949, 2659.00
1950, 2658.00
1951, 2657.00
1952, 2657.00
1953, 2659.00
1954, 2660.00
1955, 2661.00
1956, 2660.00
1957, 2662.00
1958, 2661.00
1959, 2663.00
1960, 2661.00
1961, 2665.00
1962, 2664.00
1963, 2663.00
1964, 2665.00
1965, 2667.00
1966, 2666.00
1967, 2665.00
1968, 2666.00
1969, 2666.00
1970, 2669.00
1971, 2669.00
1972, 2669.00
1973, 2669.00
1974, 2671.00
1975, 2670.00
1976, 2671.00
1977, 2673.00
1978, 2673.00
1979, 2672.00
1980, 2674.00
1981, 2674.00
1982, 2675.00
1983, 2675.00
1984, 2679.00
1985, 2677.00
1986, 2679.00
1987, 2679.00
1988, 2680.00
1989, 2681.00
1990, 2679.00
1991, 2681.00
1992, 2683.00
1993, 2685.00
1994, 2685.00
1995, 2683.00
1996, 2686.00
1997, 2684.00
1998, 2686.00
1999, 2687.00
2000, 2686.00
2001, 2690.00
2002, 2689.00
2003, 2690.00
2004, 2690.00
2005, 2691.00
2006, 2692.00
2007, 2691.00
2008, 2694.00
2009, 2694.00
2010, 2694.00
2011, 2693.00
2012, 2696.00
2013, 2698.00
2014, 2698.00
2015, 2697.00
2016, 2698.00
2017, 2700.00
2018, 2699.00
2019, 2700.00
2020, 2701.00
2021, 2702.00
2022, 2704.00
2023, 2702.00
2024, 2704.00
2025, 2704.00
2026, 2707.00
2027, 2708.00
2028, 2706.00
2029, 2708.00
2030, 2709.00
2031, 2710.00
2032, 2709.00
2033, 2711.00
2034, 2711.00
2035, 2712.00
2036, 2715.00
2037, 2715.00
2038, 2715.00
2039, 2715.00
2040, 2717.00
2041, 2718.00
2042, 2719.00
2043, 2718.00
2044, 2719.00
2045, 2720.00
2046, 2722.00
2047, 2724.00
2048, 2723.00
2049, 2724.00
2050, 2725.00
2051, 2727.00
2052, 2727.00
2053, 2728.00
2054, 2728.00
2055, 2731.00
2056, 2732.00
2057, 2735.00
2058, 2734.00
2059, 2736.00
2060, 2738.00
2061, 2736.00
2062, 2737.00
2063, 2737.00
2064, 2740.00
2065, 2739.00
2066, 2740.00
2067, 2743.00
2068, 2743.00
2069, 2745.00
2070, 2747.00
2071, 2748.00
2072, 2749.00
2073, 2749.00
2074, 2751.00
2075, 2751.00
2076, 2751.00
2077, 2753.00
2078, 2757.00
2079, 2757.00
2080, 2756.00
2081, 2758.00
2082, 2759.00
2083, 2758.00
2084, 2760.00
2085, 2760.00
2086, 2763.00
2087, 2762.00
2088, 2763.00
2089, 2765.00
2090, 2765.00
2091, 2766.00
2092, 2767.00
2093, 2768.00
2094, 2768.00
2095, 2767.00
2096, 2769.00
2097, 2771.00
2098, 2771.00
2099, 2771.00
2100, 2772.00
2101, 2773.00
2102, 2773.00
2103, 2773.00
2104, 2776.00
2105, 2774.00
2106, 2776.00
2107, 2777.00
2108, 2779.00
2109, 2776.00
2110, 2777.00
2111, 2779.00
2112, 2779.00
2113, 2780.00
2114, 2779.00
2115, 2781.00
2116, 2780.00
2117, 2782.00
2118, 2783.00
2119, 2783.00
2120, 2781.00
2121, 2780.00
2122, 2783.00
2123, 2783.00
2124, 2783.00
2125, 2782.00
2126, 2785.00
2127, 2785.00
2128, 2786.00
2129, 2787.00
2130, 2788.00
2131, 2789.00
2132, 2787.00
2133, 2792.00
2134, 2788.00
2135, 2789.00
2136, 2789.00
2137, 2789.00
2138, 2791.00
2139, 2790.00
2140, 2792.00
2141, 2792.00
2142, 2791.00
2143, 2792.00
2144, 2792.00
2145, 2793.00
2146, 2793.00
2147, 2793.00
2148, 2795.00
2149, 2793.00
2150, 2793.00
