FW version: 24
Log Version: 3.0.3

General Info:
       Command/Macro Performed,            Timestamp,             Device ID, COM Port, UART/I2C, Test Name, Host Major, Host Minor, Host Revision, Host Git Commit
            Single_measurement,  2023_07_18_10_56_52,       Insight2_F4_xxx,    USB-C,      USB,          ,          0,          1,             1,      4031237645

Show Spectrometer Status:
l0_version, f4_version, battery_perc, battery_mVolt, accelerometer_temp, accelerometer_x, accelerometer_y, accelerometer_z, compass_temp, compass_x, compass_y, compass_z, lamp_0, lamp_1, gain_0, gain_1
        17,         24,           72,          1986,               6144,           65312,            1084,           18828,            0,     65456,     65278,     18943,   2457,   2457,      1,      1

Temperature Statistic Info:
NTC AVG [°C], NTC2 AVG [°C]
      38.479,        38.158

Statistic Info:
M1:  num,      min,      max,   median,      AVG,      STD,M2:  num,      min,      max,   median,      AVG,      STD
     301,  1014.00,  1179.00,  1049.00,  1068.78,  51.2894,     401,  1425.00,  1523.00,  1465.00,  1468.18,  32.0951,

Measurements:
Wavelength, Data Amplitude
1350, 1043.00
1351, 1044.00
1352, 1042.00
1353, 1042.00
1354, 1040.00
1355, 1040.00
1356, 1041.00
1357, 1039.00
1358, 1039.00
1359, 1038.00
1360, 1038.00
1361, 1036.00
1362, 1037.00
1363, 1036.00
1364, 1035.00
1365, 1033.00
1366, 1034.00
1367, 1033.00
1368, 1031.00
1369, 1030.00
1370, 1029.00
1371, 1029.00
1372, 1027.00
1373, 1027.00
1374, 1026.00
1375, 1026.00
1376, 1026.00
1377, 1026.00
1378, 1024.00
1379, 1024.00
1380, 1024.00
1381, 1022.00
1382, 1021.00
1383, 1020.00
1384, 1021.00
1385, 1022.00
1386, 1021.00
1387, 1021.00
1388, 1020.00
1389, 1019.00
1390, 1019.00
1391, 1018.00
1392, 1019.00
1393, 1018.00
1394, 1017.00
1395, 1018.00
1396, 1017.00
1397, 1017.00
1398, 1017.00
1399, 1017.00
1400, 1016.00
1401, 1017.00
1402, 1016.00
1403, 1016.00
1404, 1016.00
1405, 1015.00
1406, 1015.00
1407, 1016.00
1408, 1014.00
1409, 1015.00
1410, 1015.00
1411, 1015.00
1412, 1015.00
1413, 1015.00
1414, 1015.00
1415, 1015.00
1416, 1015.00
1417, 1016.00
1418, 1016.00
1419, 1015.00
1420, 1014.00
1421, 1015.00
1422, 1015.00
1423, 1015.00
1424, 1015.00
1425, 1015.00
1426, 1015.00
1427, 1016.00
1428, 1016.00
1429, 1015.00
1430, 1015.00
1431, 1016.00
1432, 1016.00
1433, 1017.00
1434, 1017.00
1435, 1017.00
1436, 1018.00
1437, 1017.00
1438, 1018.00
1439, 1019.00
1440, 1018.00
1441, 1018.00
1442, 1019.00
1443, 1019.00
1444, 1019.00
1445, 1020.00
1446, 1019.00
1447, 1020.00
1448, 1020.00
1449, 1021.00
1450, 1020.00
1451, 1021.00
1452, 1022.00
1453, 1021.00
1454, 1022.00
1455, 1023.00
1456, 1022.00
1457, 1024.00
1458, 1023.00
1459, 1024.00
1460, 1025.00
1461, 1025.00
1462, 1026.00
1463, 1026.00
1464, 1027.00
1465, 1026.00
1466, 1028.00
1467, 1028.00
1468, 1029.00
1469, 1029.00
1470, 1030.00
1471, 1031.00
1472, 1030.00
1473, 1031.00
1474, 1032.00
1475, 1032.00
1476, 1033.00
1477, 1034.00
1478, 1034.00
1479, 1035.00
1480, 1036.00
1481, 1036.00
1482, 1037.00
1483, 1037.00
1484, 1038.00
1485, 1038.00
1486, 1039.00
1487, 1040.00
1488, 1041.00
1489, 1041.00
1490, 1041.00
1491, 1043.00
1492, 1043.00
1493, 1044.00
1494, 1045.00
1495, 1046.00
1496, 1045.00
1497, 1046.00
1498, 1047.00
1499, 1049.00
1500, 1050.00
1501, 1048.00
1502, 1050.00
1503, 1051.00
1504, 1051.00
1505, 1052.00
1506, 1053.00
1507, 1053.00
1508, 1055.00
1509, 1056.00
1510, 1056.00
1511, 1057.00
1512, 1056.00
1513, 1058.00
1514, 1059.00
1515, 1060.00
1516, 1060.00
1517, 1061.00
1518, 1062.00
1519, 1062.00
1520, 1064.00
1521, 1064.00
1522, 1065.00
1523, 1066.00
1524, 1067.00
1525, 1068.00
1526, 1068.00
1527, 1069.00
1528, 1070.00
1529, 1071.00
1530, 1072.00
1531, 1073.00
1532, 1074.00
1533, 1074.00
1534, 1075.00
1535, 1076.00
1536, 1077.00
1537, 1079.00
1538, 1079.00
1539, 1080.00
1540, 1080.00
1541, 1081.00
1542, 1082.00
1543, 1082.00
1544, 1083.00
1545, 1084.00
1546, 1087.00
1547, 1087.00
1548, 1088.00
1549, 1088.00
1550, 1089.00
1551, 1090.00
1552, 1091.00
1553, 1091.00
1554, 1091.00
1555, 1092.00
1556, 1095.00
1557, 1094.00
1558, 1096.00
1559, 1096.00
1560, 1097.00
1561, 1098.00
1562, 1100.00
1563, 1100.00
1564, 1101.00
1565, 1102.00
1566, 1103.00
1567, 1104.00
1568, 1104.00
1569, 1105.00
1570, 1107.00
1571, 1108.00
1572, 1109.00
1573, 1108.00
1574, 1110.00
1575, 1111.00
1576, 1111.00
1577, 1112.00
1578, 1112.00
1579, 1115.00
1580, 1115.00
1581, 1116.00
1582, 1117.00
1583, 1117.00
1584, 1118.00
1585, 1119.00
1586, 1120.00
1587, 1121.00
1588, 1123.00
1589, 1122.00
1590, 1123.00
1591, 1125.00
1592, 1125.00
1593, 1125.00
1594, 1126.00
1595, 1128.00
1596, 1127.00
1597, 1129.00
1598, 1130.00
1599, 1130.00
1600, 1132.00
1601, 1132.00
1602, 1133.00
1603, 1134.00
1604, 1136.00
1605, 1136.00
1606, 1137.00
1607, 1138.00
1608, 1138.00
1609, 1139.00
1610, 1141.00
1611, 1141.00
1612, 1143.00
1613, 1144.00
1614, 1145.00
1615, 1145.00
1616, 1146.00
1617, 1147.00
1618, 1150.00
1619, 1151.00
1620, 1151.00
1621, 1152.00
1622, 1153.00
1623, 1155.00
1624, 1156.00
1625, 1157.00
1626, 1157.00
1627, 1159.00
1628, 1160.00
1629, 1160.00
1630, 1162.00
1631, 1163.00
1632, 1164.00
1633, 1164.00
1634, 1166.00
1635, 1167.00
1636, 1167.00
1637, 1168.00
1638, 1169.00
1639, 1170.00
1640, 1171.00
1641, 1171.00
1642, 1173.00
1643, 1173.00
1644, 1174.00
1645, 1176.00
1646, 1175.00
1647, 1177.00
1648, 1178.00
1649, 1178.00
1650, 1179.00

1750, 1522.00
1751, 1523.00
1752, 1520.00
1753, 1521.00
1754, 1522.00
1755, 1522.00
1756, 1521.00
1757, 1522.00
1758, 1521.00
1759, 1521.00
1760, 1520.00
1761, 1522.00
1762, 1521.00
1763, 1522.00
1764, 1520.00
1765, 1521.00
1766, 1523.00
1767, 1521.00
1768, 1520.00
1769, 1520.00
1770, 1521.00
1771, 1522.00
1772, 1520.00
1773, 1517.00
1774, 1518.00
1775, 1521.00
1776, 1520.00
1777, 1519.00
1778, 1517.00
1779, 1518.00
1780, 1520.00
1781, 1517.00
1782, 1517.00
1783, 1516.00
1784, 1516.00
1785, 1518.00
1786, 1516.00
1787, 1516.00
1788, 1514.00
1789, 1514.00
1790, 1514.00
1791, 1515.00
1792, 1512.00
1793, 1514.00
1794, 1515.00
1795, 1512.00
1796, 1513.00
1797, 1513.00
1798, 1512.00
1799, 1510.00
1800, 1510.00
1801, 1510.00
1802, 1511.00
1803, 1509.00
1804, 1509.00
1805, 1511.00
1806, 1509.00
1807, 1509.00
1808, 1509.00
1809, 1505.00
1810, 1506.00
1811, 1506.00
1812, 1509.00
1813, 1507.00
1814, 1506.00
1815, 1505.00
1816, 1505.00
1817, 1505.00
1818, 1505.00
1819, 1505.00
1820, 1503.00
1821, 1503.00
1822, 1501.00
1823, 1501.00
1824, 1500.00
1825, 1500.00
1826, 1499.00
1827, 1497.00
1828, 1497.00
1829, 1498.00
1830, 1497.00
1831, 1495.00
1832, 1491.00
1833, 1494.00
1834, 1492.00
1835, 1491.00
1836, 1488.00
1837, 1487.00
1838, 1485.00
1839, 1484.00
1840, 1483.00
1841, 1482.00
1842, 1480.00
1843, 1479.00
1844, 1481.00
1845, 1476.00
1846, 1474.00
1847, 1475.00
1848, 1471.00
1849, 1469.00
1850, 1469.00
1851, 1465.00
1852, 1467.00
1853, 1464.00
1854, 1462.00
1855, 1463.00
1856, 1460.00
1857, 1460.00
1858, 1456.00
1859, 1457.00
1860, 1454.00
1861, 1452.00
1862, 1453.00
1863, 1452.00
1864, 1448.00
1865, 1448.00
1866, 1446.00
1867, 1446.00
1868, 1446.00
1869, 1444.00
1870, 1443.00
1871, 1442.00
1872, 1440.00
1873, 1441.00
1874, 1441.00
1875, 1439.00
1876, 1439.00
1877, 1438.00
1878, 1437.00
1879, 1436.00
1880, 1436.00
1881, 1436.00
1882, 1435.00
1883, 1435.00
1884, 1433.00
1885, 1434.00
1886, 1432.00
1887, 1433.00
1888, 1435.00
1889, 1433.00
1890, 1433.00
1891, 1430.00
1892, 1430.00
1893, 1430.00
1894, 1429.00
1895, 1431.00
1896, 1429.00
1897, 1430.00
1898, 1428.00
1899, 1428.00
1900, 1430.00
1901, 1431.00
1902, 1429.00
1903, 1429.00
1904, 1430.00
1905, 1427.00
1906, 1428.00
1907, 1428.00
1908, 1426.00
1909, 1425.00
1910, 1429.00
1911, 1427.00
1912, 1428.00
1913, 1427.00
1914, 1427.00
1915, 1427.00
1916, 1426.00
1917, 1426.00
1918, 1425.00
1919, 1426.00
1920, 1428.00
1921, 1426.00
1922, 1427.00
1923, 1427.00
1924, 1426.00
1925, 1427.00
1926, 1425.00
1927, 1427.00
1928, 1426.00
1929, 1426.00
1930, 1427.00
1931, 1427.00
1932, 1427.00
1933, 1428.00
1934, 1427.00
1935, 1427.00
1936, 1425.00
1937, 1426.00
1938, 1427.00
1939, 1427.00
1940, 1428.00
1941, 1428.00
1942, 1428.00
1943, 1426.00
1944, 1429.00
1945, 1428.00
1946, 1428.00
1947, 1428.00
1948, 1429.00
1949, 1428.00
1950, 1429.00
1951, 1429.00
1952, 1427.00
1953, 1429.00
1954, 1428.00
1955, 1428.00
1956, 1430.00
1957, 1429.00
1958, 1430.00
1959, 1431.00
1960, 1431.00
1961, 1432.00
1962, 1431.00
1963, 1430.00
1964, 1432.00
1965, 1433.00
1966, 1433.00
1967, 1432.00
1968, 1434.00
1969, 1433.00
1970, 1432.00
1971, 1435.00
1972, 1435.00
1973, 1435.00
1974, 1436.00
1975, 1435.00
1976, 1436.00
1977, 1435.00
1978, 1435.00
1979, 1435.00
1980, 1436.00
1981, 1439.00
1982, 1438.00
1983, 1437.00
1984, 1437.00
1985, 1439.00
1986, 1439.00
1987, 1441.00
1988, 1439.00
1989, 1438.00
1990, 1441.00
1991, 1441.00
1992, 1440.00
1993, 1442.00
1994, 1441.00
1995, 1442.00
1996, 1442.00
1997, 1444.00
1998, 1442.00
1999, 1442.00
2000, 1443.00
2001, 1444.00
2002, 1443.00
2003, 1443.00
2004, 1444.00
2005, 1446.00
2006, 1444.00
2007, 1446.00
2008, 1446.00
2009, 1447.00
2010, 1449.00
2011, 1446.00
2012, 1447.00
2013, 1448.00
2014, 1448.00
2015, 1447.00
2016, 1449.00
2017, 1448.00
2018, 1450.00
2019, 1449.00
2020, 1451.00
2021, 1449.00
2022, 1452.00
2023, 1450.00
2024, 1453.00
2025, 1454.00
2026, 1454.00
2027, 1452.00
2028, 1453.00
2029, 1453.00
2030, 1454.00
2031, 1454.00
2032, 1455.00
2033, 1456.00
2034, 1455.00
2035, 1455.00
2036, 1456.00
2037, 1457.00
2038, 1458.00
2039, 1458.00
2040, 1460.00
2041, 1458.00
2042, 1459.00
2043, 1461.00
2044, 1460.00
2045, 1460.00
2046, 1460.00
2047, 1462.00
2048, 1463.00
2049, 1462.00
2050, 1463.00
2051, 1463.00
2052, 1465.00
2053, 1465.00
2054, 1466.00
2055, 1466.00
2056, 1465.00
2057, 1468.00
2058, 1468.00
2059, 1468.00
2060, 1468.00
2061, 1469.00
2062, 1469.00
2063, 1471.00
2064, 1470.00
2065, 1474.00
2066, 1472.00
2067, 1473.00
2068, 1476.00
2069, 1473.00
2070, 1474.00
2071, 1477.00
2072, 1475.00
2073, 1475.00
2074, 1477.00
2075, 1478.00
2076, 1479.00
2077, 1479.00
2078, 1478.00
2079, 1479.00
2080, 1481.00
2081, 1479.00
2082, 1482.00
2083, 1482.00
2084, 1482.00
2085, 1482.00
2086, 1482.00
2087, 1484.00
2088, 1483.00
2089, 1484.00
2090, 1484.00
2091, 1486.00
2092, 1486.00
2093, 1487.00
2094, 1485.00
2095, 1488.00
2096, 1486.00
2097, 1488.00
2098, 1489.00
2099, 1489.00
2100, 1489.00
2101, 1490.00
2102, 1491.00
2103, 1491.00
2104, 1489.00
2105, 1489.00
2106, 1490.00
2107, 1490.00
2108, 1490.00
2109, 1492.00
2110, 1493.00
2111, 1493.00
2112, 1494.00
2113, 1491.00
2114, 1492.00
2115, 1493.00
2116, 1493.00
2117, 1497.00
2118, 1494.00
2119, 1494.00
2120, 1494.00
2121, 1494.00
2122, 1496.00
2123, 1497.00
2124, 1495.00
2125, 1497.00
2126, 1498.00
2127, 1496.00
2128, 1495.00
2129, 1499.00
2130, 1497.00
2131, 1497.00
2132, 1499.00
2133, 1499.00
2134, 1498.00
2135, 1498.00
2136, 1498.00
2137, 1500.00
2138, 1500.00
2139, 1499.00
2140, 1501.00
2141, 1501.00
2142, 1500.00
2143, 1500.00
2144, 1500.00
2145, 1501.00
2146, 1501.00
2147, 1499.00
2148, 1502.00
2149, 1501.00
2150, 1502.00
