FW version: 24
Log Version: 3.0.3

General Info:
       Command/Macro Performed,            Timestamp,             Device ID, COM Port, UART/I2C, Test Name, Host Major, Host Minor, Host Revision, Host Git Commit
            Single_measurement,  2023_06_29_11_20_07,       Insight2_F4_xxx,    USB-C,      USB,          ,          0,          1,             1,      4031237645

Show Spectrometer Status:
l0_version, f4_version, battery_perc, battery_mVolt, accelerometer_temp, accelerometer_x, accelerometer_y, accelerometer_z, compass_temp, compass_x, compass_y, compass_z, lamp_0, lamp_1, gain_0, gain_1
        17,         24,           94,          2074,               5536,           65436,           65496,           18376,            0,     65501,     65503,     65501,   3276,   3276,      1,      1

Temperature Statistic Info:
NTC AVG [°C], NTC2 AVG [°C]
      36.722,        36.351

Statistic Info:
M1:  num,      min,      max,   median,      AVG,      STD,M2:  num,      min,      max,   median,      AVG,      STD
     301,  1999.00,  2307.00,  2061.00,  2099.83,  95.2692,     401,  2607.00,  2789.00,  2677.00,  2684.15,  59.2569,

Measurements:
Wavelength, Data Amplitude
1350, 2061.00
1351, 2061.00
1352, 2059.00
1353, 2058.00
1354, 2056.00
1355, 2056.00
1356, 2055.00
1357, 2054.00
1358, 2053.00
1359, 2051.00
1360, 2049.00
1361, 2047.00
1362, 2047.00
1363, 2045.00
1364, 2042.00
1365, 2041.00
1366, 2039.00
1367, 2038.00
1368, 2037.00
1369, 2035.00
1370, 2034.00
1371, 2031.00
1372, 2030.00
1373, 2029.00
1374, 2027.00
1375, 2025.00
1376, 2025.00
1377, 2022.00
1378, 2021.00
1379, 2020.00
1380, 2019.00
1381, 2018.00
1382, 2016.00
1383, 2015.00
1384, 2015.00
1385, 2013.00
1386, 2011.00
1387, 2011.00
1388, 2011.00
1389, 2009.00
1390, 2010.00
1391, 2007.00
1392, 2007.00
1393, 2007.00
1394, 2007.00
1395, 2007.00
1396, 2005.00
1397, 2005.00
1398, 2005.00
1399, 2003.00
1400, 2005.00
1401, 2005.00
1402, 2004.00
1403, 2004.00
1404, 2003.00
1405, 2003.00
1406, 2001.00
1407, 2002.00
1408, 2001.00
1409, 2002.00
1410, 2001.00
1411, 2001.00
1412, 2000.00
1413, 2002.00
1414, 2000.00
1415, 2000.00
1416, 2000.00
1417, 2000.00
1418, 2000.00
1419, 2001.00
1420, 2000.00
1421, 1999.00
1422, 1999.00
1423, 1999.00
1424, 1999.00
1425, 2000.00
1426, 2001.00
1427, 1999.00
1428, 2000.00
1429, 2001.00
1430, 2000.00
1431, 2001.00
1432, 2003.00
1433, 2001.00
1434, 2001.00
1435, 2003.00
1436, 2003.00
1437, 2004.00
1438, 2004.00
1439, 2003.00
1440, 2005.00
1441, 2005.00
1442, 2004.00
1443, 2004.00
1444, 2006.00
1445, 2005.00
1446, 2007.00
1447, 2007.00
1448, 2007.00
1449, 2009.00
1450, 2008.00
1451, 2009.00
1452, 2010.00
1453, 2012.00
1454, 2012.00
1455, 2013.00
1456, 2013.00
1457, 2014.00
1458, 2015.00
1459, 2015.00
1460, 2015.00
1461, 2017.00
1462, 2018.00
1463, 2019.00
1464, 2019.00
1465, 2020.00
1466, 2021.00
1467, 2022.00
1468, 2023.00
1469, 2024.00
1470, 2024.00
1471, 2026.00
1472, 2027.00
1473, 2027.00
1474, 2028.00
1475, 2030.00
1476, 2031.00
1477, 2033.00
1478, 2033.00
1479, 2035.00
1480, 2035.00
1481, 2037.00
1482, 2038.00
1483, 2039.00
1484, 2039.00
1485, 2041.00
1486, 2043.00
1487, 2043.00
1488, 2045.00
1489, 2045.00
1490, 2048.00
1491, 2049.00
1492, 2050.00
1493, 2053.00
1494, 2052.00
1495, 2054.00
1496, 2056.00
1497, 2056.00
1498, 2058.00
1499, 2060.00
1500, 2061.00
1501, 2062.00
1502, 2063.00
1503, 2063.00
1504, 2065.00
1505, 2067.00
1506, 2068.00
1507, 2070.00
1508, 2070.00
1509, 2072.00
1510, 2073.00
1511, 2075.00
1512, 2077.00
1513, 2078.00
1514, 2079.00
1515, 2079.00
1516, 2082.00
1517, 2083.00
1518, 2084.00
1519, 2086.00
1520, 2088.00
1521, 2089.00
1522, 2090.00
1523, 2093.00
1524, 2093.00
1525, 2095.00
1526, 2097.00
1527, 2098.00
1528, 2100.00
1529, 2102.00
1530, 2103.00
1531, 2104.00
1532, 2106.00
1533, 2107.00
1534, 2109.00
1535, 2110.00
1536, 2112.00
1537, 2113.00
1538, 2115.00
1539, 2117.00
1540, 2118.00
1541, 2120.00
1542, 2121.00
1543, 2123.00
1544, 2124.00
1545, 2126.00
1546, 2129.00
1547, 2129.00
1548, 2131.00
1549, 2132.00
1550, 2134.00
1551, 2136.00
1552, 2137.00
1553, 2139.00
1554, 2141.00
1555, 2142.00
1556, 2144.00
1557, 2146.00
1558, 2148.00
1559, 2150.00
1560, 2151.00
1561, 2152.00
1562, 2154.00
1563, 2156.00
1564, 2158.00
1565, 2159.00
1566, 2161.00
1567, 2164.00
1568, 2164.00
1569, 2167.00
1570, 2170.00
1571, 2171.00
1572, 2172.00
1573, 2174.00
1574, 2177.00
1575, 2178.00
1576, 2179.00
1577, 2180.00
1578, 2183.00
1579, 2184.00
1580, 2187.00
1581, 2187.00
1582, 2189.00
1583, 2190.00
1584, 2193.00
1585, 2193.00
1586, 2195.00
1587, 2197.00
1588, 2198.00
1589, 2199.00
1590, 2202.00
1591, 2203.00
1592, 2206.00
1593, 2205.00
1594, 2207.00
1595, 2208.00
1596, 2211.00
1597, 2212.00
1598, 2213.00
1599, 2215.00
1600, 2217.00
1601, 2218.00
1602, 2220.00
1603, 2221.00
1604, 2224.00
1605, 2225.00
1606, 2227.00
1607, 2229.00
1608, 2231.00
1609, 2233.00
1610, 2235.00
1611, 2237.00
1612, 2239.00
1613, 2240.00
1614, 2242.00
1615, 2245.00
1616, 2246.00
1617, 2249.00
1618, 2250.00
1619, 2253.00
1620, 2254.00
1621, 2256.00
1622, 2257.00
1623, 2261.00
1624, 2262.00
1625, 2265.00
1626, 2265.00
1627, 2268.00
1628, 2270.00
1629, 2272.00
1630, 2273.00
1631, 2275.00
1632, 2277.00
1633, 2279.00
1634, 2281.00
1635, 2281.00
1636, 2285.00
1637, 2286.00
1638, 2287.00
1639, 2289.00
1640, 2290.00
1641, 2291.00
1642, 2293.00
1643, 2294.00
1644, 2296.00
1645, 2299.00
1646, 2298.00
1647, 2301.00
1648, 2303.00
1649, 2304.00
1650, 2307.00

1750, 2789.00
1751, 2788.00
1752, 2789.00
1753, 2787.00
1754, 2788.00
1755, 2788.00
1756, 2786.00
1757, 2787.00
1758, 2789.00
1759, 2787.00
1760, 2786.00
1761, 2785.00
1762, 2786.00
1763, 2787.00
1764, 2785.00
1765, 2786.00
1766, 2786.00
1767, 2783.00
1768, 2785.00
1769, 2783.00
1770, 2783.00
1771, 2784.00
1772, 2783.00
1773, 2783.00
1774, 2784.00
1775, 2783.00
1776, 2782.00
1777, 2783.00
1778, 2780.00
1779, 2780.00
1780, 2780.00
1781, 2778.00
1782, 2780.00
1783, 2778.00
1784, 2778.00
1785, 2777.00
1786, 2775.00
1787, 2776.00
1788, 2776.00
1789, 2774.00
1790, 2773.00
1791, 2775.00
1792, 2774.00
1793, 2773.00
1794, 2771.00
1795, 2772.00
1796, 2770.00
1797, 2770.00
1798, 2769.00
1799, 2769.00
1800, 2769.00
1801, 2768.00
1802, 2766.00
1803, 2765.00
1804, 2767.00
1805, 2767.00
1806, 2763.00
1807, 2763.00
1808, 2763.00
1809, 2764.00
1810, 2760.00
1811, 2762.00
1812, 2761.00
1813, 2759.00
1814, 2758.00
1815, 2757.00
1816, 2757.00
1817, 2757.00
1818, 2755.00
1819, 2755.00
1820, 2752.00
1821, 2752.00
1822, 2751.00
1823, 2748.00
1824, 2748.00
1825, 2746.00
1826, 2745.00
1827, 2744.00
1828, 2743.00
1829, 2740.00
1830, 2739.00
1831, 2736.00
1832, 2734.00
1833, 2733.00
1834, 2729.00
1835, 2728.00
1836, 2726.00
1837, 2724.00
1838, 2721.00
1839, 2719.00
1840, 2716.00
1841, 2714.00
1842, 2711.00
1843, 2708.00
1844, 2706.00
1845, 2702.00
1846, 2700.00
1847, 2700.00
1848, 2696.00
1849, 2692.00
1850, 2688.00
1851, 2685.00
1852, 2685.00
1853, 2681.00
1854, 2679.00
1855, 2675.00
1856, 2673.00
1857, 2671.00
1858, 2665.00
1859, 2664.00
1860, 2663.00
1861, 2659.00
1862, 2658.00
1863, 2654.00
1864, 2654.00
1865, 2651.00
1866, 2650.00
1867, 2647.00
1868, 2644.00
1869, 2643.00
1870, 2642.00
1871, 2639.00
1872, 2638.00
1873, 2637.00
1874, 2634.00
1875, 2632.00
1876, 2632.00
1877, 2631.00
1878, 2631.00
1879, 2629.00
1880, 2628.00
1881, 2626.00
1882, 2626.00
1883, 2625.00
1884, 2625.00
1885, 2623.00
1886, 2623.00
1887, 2621.00
1888, 2621.00
1889, 2621.00
1890, 2620.00
1891, 2618.00
1892, 2617.00
1893, 2618.00
1894, 2617.00
1895, 2618.00
1896, 2616.00
1897, 2616.00
1898, 2615.00
1899, 2616.00
1900, 2614.00
1901, 2616.00
1902, 2614.00
1903, 2612.00
1904, 2613.00
1905, 2610.00
1906, 2612.00
1907, 2612.00
1908, 2612.00
1909, 2611.00
1910, 2610.00
1911, 2611.00
1912, 2611.00
1913, 2610.00
1914, 2608.00
1915, 2609.00
1916, 2609.00
1917, 2610.00
1918, 2610.00
1919, 2608.00
1920, 2608.00
1921, 2609.00
1922, 2609.00
1923, 2607.00
1924, 2608.00
1925, 2609.00
1926, 2607.00
1927, 2609.00
1928, 2608.00
1929, 2609.00
1930, 2610.00
1931, 2608.00
1932, 2608.00
1933, 2607.00
1934, 2610.00
1935, 2607.00
1936, 2607.00
1937, 2611.00
1938, 2607.00
1939, 2609.00
1940, 2608.00
1941, 2609.00
1942, 2609.00
1943, 2610.00
1944, 2609.00
1945, 2609.00
1946, 2611.00
1947, 2611.00
1948, 2610.00
1949, 2611.00
1950, 2612.00
1951, 2611.00
1952, 2612.00
1953, 2613.00
1954, 2612.00
1955, 2612.00
1956, 2612.00
1957, 2613.00
1958, 2615.00
1959, 2615.00
1960, 2616.00
1961, 2616.00
1962, 2617.00
1963, 2616.00
1964, 2618.00
1965, 2617.00
1966, 2617.00
1967, 2618.00
1968, 2620.00
1969, 2619.00
1970, 2618.00
1971, 2621.00
1972, 2621.00
1973, 2622.00
1974, 2624.00
1975, 2623.00
1976, 2625.00
1977, 2624.00
1978, 2624.00
1979, 2624.00
1980, 2627.00
1981, 2625.00
1982, 2627.00
1983, 2627.00
1984, 2629.00
1985, 2630.00
1986, 2629.00
1987, 2629.00
1988, 2630.00
1989, 2631.00
1990, 2632.00
1991, 2633.00
1992, 2633.00
1993, 2632.00
1994, 2634.00
1995, 2636.00
1996, 2635.00
1997, 2634.00
1998, 2636.00
1999, 2639.00
2000, 2639.00
2001, 2638.00
2002, 2640.00
2003, 2638.00
2004, 2640.00
2005, 2641.00
2006, 2641.00
2007, 2641.00
2008, 2642.00
2009, 2644.00
2010, 2645.00
2011, 2644.00
2012, 2646.00
2013, 2648.00
2014, 2647.00
2015, 2646.00
2016, 2646.00
2017, 2646.00
2018, 2651.00
2019, 2648.00
2020, 2650.00
2021, 2651.00
2022, 2652.00
2023, 2650.00
2024, 2653.00
2025, 2654.00
2026, 2654.00
2027, 2655.00
2028, 2655.00
2029, 2655.00
2030, 2658.00
2031, 2658.00
2032, 2659.00
2033, 2660.00
2034, 2659.00
2035, 2661.00
2036, 2661.00
2037, 2661.00
2038, 2663.00
2039, 2664.00
2040, 2662.00
2041, 2665.00
2042, 2666.00
2043, 2666.00
2044, 2668.00
2045, 2670.00
2046, 2670.00
2047, 2669.00
2048, 2673.00
2049, 2672.00
2050, 2674.00
2051, 2674.00
2052, 2675.00
2053, 2677.00
2054, 2678.00
2055, 2677.00
2056, 2677.00
2057, 2679.00
2058, 2681.00
2059, 2683.00
2060, 2681.00
2061, 2686.00
2062, 2684.00
2063, 2685.00
2064, 2686.00
2065, 2687.00
2066, 2687.00
2067, 2689.00
2068, 2690.00
2069, 2690.00
2070, 2691.00
2071, 2693.00
2072, 2695.00
2073, 2694.00
2074, 2698.00
2075, 2696.00
2076, 2696.00
2077, 2699.00
2078, 2699.00
2079, 2699.00
2080, 2701.00
2081, 2703.00
2082, 2703.00
2083, 2705.00
2084, 2704.00
2085, 2705.00
2086, 2707.00
2087, 2707.00
2088, 2708.00
2089, 2707.00
2090, 2710.00
2091, 2710.00
2092, 2711.00
2093, 2712.00
2094, 2710.00
2095, 2714.00
2096, 2714.00
2097, 2714.00
2098, 2715.00
2099, 2717.00
2100, 2717.00
2101, 2715.00
2102, 2717.00
2103, 2719.00
2104, 2719.00
2105, 2718.00
2106, 2720.00
2107, 2718.00
2108, 2721.00
2109, 2721.00
2110, 2723.00
2111, 2722.00
2112, 2722.00
2113, 2723.00
2114, 2723.00
2115, 2724.00
2116, 2723.00
2117, 2725.00
2118, 2726.00
2119, 2726.00
2120, 2726.00
2121, 2725.00
2122, 2727.00
2123, 2728.00
2124, 2730.00
2125, 2728.00
2126, 2729.00
2127, 2730.00
2128, 2729.00
2129, 2727.00
2130, 2729.00
2131, 2731.00
2132, 2732.00
2133, 2731.00
2134, 2732.00
2135, 2733.00
2136, 2731.00
2137, 2735.00
2138, 2732.00
2139, 2733.00
2140, 2734.00
2141, 2736.00
2142, 2734.00
2143, 2735.00
2144, 2735.00
2145, 2735.00
2146, 2737.00
2147, 2736.00
2148, 2738.00
2149, 2736.00
2150, 2738.00
