FW version: 24
Log Version: 3.0.3

General Info:
       Command/Macro Performed,            Timestamp,             Device ID, COM Port, UART/I2C, Test Name, Host Major, Host Minor, Host Revision, Host Git Commit
            Single_measurement,  2023_06_29_11_20_11,       Insight2_F4_xxx,    USB-C,      USB,          ,          0,          1,             1,      4031237645

Show Spectrometer Status:
l0_version, f4_version, battery_perc, battery_mVolt, accelerometer_temp, accelerometer_x, accelerometer_y, accelerometer_z, compass_temp, compass_x, compass_y, compass_z, lamp_0, lamp_1, gain_0, gain_1
        17,         24,           94,          2074,               5520,           65452,           65508,           18476,            0,     65534,     65532,     65455,   3276,   3276,      1,      1

Temperature Statistic Info:
NTC AVG [°C], NTC2 AVG [°C]
      36.778,        36.465

Statistic Info:
M1:  num,      min,      max,   median,      AVG,      STD,M2:  num,      min,      max,   median,      AVG,      STD
     301,  1998.00,  2307.00,  2060.00,  2099.38,  95.3299,     401,  2606.00,  2789.00,  2677.00,  2683.59,  59.4000,

Measurements:
Wavelength, Data Amplitude
1350, 2059.00
1351, 2059.00
1352, 2057.00
1353, 2058.00
1354, 2055.00
1355, 2055.00
1356, 2055.00
1357, 2051.00
1358, 2052.00
1359, 2050.00
1360, 2050.00
1361, 2048.00
1362, 2045.00
1363, 2044.00
1364, 2043.00
1365, 2040.00
1366, 2039.00
1367, 2038.00
1368, 2037.00
1369, 2035.00
1370, 2031.00
1371, 2030.00
1372, 2030.00
1373, 2028.00
1374, 2026.00
1375, 2026.00
1376, 2024.00
1377, 2022.00
1378, 2021.00
1379, 2020.00
1380, 2018.00
1381, 2017.00
1382, 2016.00
1383, 2015.00
1384, 2013.00
1385, 2013.00
1386, 2012.00
1387, 2011.00
1388, 2011.00
1389, 2010.00
1390, 2010.00
1391, 2009.00
1392, 2008.00
1393, 2007.00
1394, 2006.00
1395, 2004.00
1396, 2005.00
1397, 2004.00
1398, 2005.00
1399, 2003.00
1400, 2003.00
1401, 2003.00
1402, 2003.00
1403, 2003.00
1404, 2002.00
1405, 2001.00
1406, 2003.00
1407, 2002.00
1408, 2001.00
1409, 2001.00
1410, 2001.00
1411, 2001.00
1412, 2001.00
1413, 2001.00
1414, 1999.00
1415, 2000.00
1416, 1999.00
1417, 2001.00
1418, 1998.00
1419, 1999.00
1420, 1999.00
1421, 1999.00
1422, 1999.00
1423, 1998.00
1424, 2000.00
1425, 2000.00
1426, 2000.00
1427, 1999.00
1428, 2000.00
1429, 2000.00
1430, 2000.00
1431, 2000.00
1432, 2001.00
1433, 2001.00
1434, 2000.00
1435, 2002.00
1436, 2002.00
1437, 2003.00
1438, 2003.00
1439, 2003.00
1440, 2004.00
1441, 2004.00
1442, 2005.00
1443, 2005.00
1444, 2005.00
1445, 2005.00
1446, 2006.00
1447, 2007.00
1448, 2007.00
1449, 2009.00
1450, 2009.00
1451, 2010.00
1452, 2009.00
1453, 2010.00
1454, 2010.00
1455, 2012.00
1456, 2013.00
1457, 2013.00
1458, 2014.00
1459, 2014.00
1460, 2016.00
1461, 2016.00
1462, 2017.00
1463, 2018.00
1464, 2019.00
1465, 2020.00
1466, 2020.00
1467, 2022.00
1468, 2022.00
1469, 2023.00
1470, 2023.00
1471, 2025.00
1472, 2026.00
1473, 2027.00
1474, 2027.00
1475, 2029.00
1476, 2030.00
1477, 2031.00
1478, 2032.00
1479, 2034.00
1480, 2035.00
1481, 2036.00
1482, 2037.00
1483, 2038.00
1484, 2039.00
1485, 2041.00
1486, 2042.00
1487, 2043.00
1488, 2044.00
1489, 2046.00
1490, 2046.00
1491, 2048.00
1492, 2049.00
1493, 2052.00
1494, 2052.00
1495, 2054.00
1496, 2055.00
1497, 2056.00
1498, 2058.00
1499, 2059.00
1500, 2060.00
1501, 2061.00
1502, 2063.00
1503, 2064.00
1504, 2065.00
1505, 2066.00
1506, 2068.00
1507, 2069.00
1508, 2071.00
1509, 2071.00
1510, 2074.00
1511, 2074.00
1512, 2076.00
1513, 2078.00
1514, 2078.00
1515, 2079.00
1516, 2081.00
1517, 2083.00
1518, 2086.00
1519, 2086.00
1520, 2086.00
1521, 2088.00
1522, 2090.00
1523, 2091.00
1524, 2093.00
1525, 2095.00
1526, 2096.00
1527, 2098.00
1528, 2100.00
1529, 2101.00
1530, 2102.00
1531, 2105.00
1532, 2105.00
1533, 2108.00
1534, 2108.00
1535, 2111.00
1536, 2112.00
1537, 2114.00
1538, 2115.00
1539, 2116.00
1540, 2118.00
1541, 2119.00
1542, 2121.00
1543, 2123.00
1544, 2125.00
1545, 2125.00
1546, 2127.00
1547, 2129.00
1548, 2130.00
1549, 2133.00
1550, 2133.00
1551, 2135.00
1552, 2138.00
1553, 2138.00
1554, 2139.00
1555, 2142.00
1556, 2143.00
1557, 2144.00
1558, 2146.00
1559, 2149.00
1560, 2151.00
1561, 2152.00
1562, 2154.00
1563, 2156.00
1564, 2157.00
1565, 2160.00
1566, 2162.00
1567, 2163.00
1568, 2165.00
1569, 2166.00
1570, 2168.00
1571, 2170.00
1572, 2172.00
1573, 2173.00
1574, 2177.00
1575, 2176.00
1576, 2179.00
1577, 2180.00
1578, 2181.00
1579, 2185.00
1580, 2186.00
1581, 2187.00
1582, 2189.00
1583, 2190.00
1584, 2192.00
1585, 2193.00
1586, 2194.00
1587, 2197.00
1588, 2197.00
1589, 2199.00
1590, 2201.00
1591, 2204.00
1592, 2205.00
1593, 2206.00
1594, 2207.00
1595, 2209.00
1596, 2211.00
1597, 2212.00
1598, 2213.00
1599, 2215.00
1600, 2217.00
1601, 2218.00
1602, 2220.00
1603, 2221.00
1604, 2223.00
1605, 2225.00
1606, 2228.00
1607, 2229.00
1608, 2231.00
1609, 2233.00
1610, 2233.00
1611, 2236.00
1612, 2239.00
1613, 2240.00
1614, 2243.00
1615, 2245.00
1616, 2246.00
1617, 2248.00
1618, 2251.00
1619, 2251.00
1620, 2253.00
1621, 2255.00
1622, 2258.00
1623, 2259.00
1624, 2262.00
1625, 2264.00
1626, 2266.00
1627, 2267.00
1628, 2269.00
1629, 2271.00
1630, 2272.00
1631, 2275.00
1632, 2276.00
1633, 2278.00
1634, 2279.00
1635, 2282.00
1636, 2283.00
1637, 2285.00
1638, 2286.00
1639, 2287.00
1640, 2290.00
1641, 2291.00
1642, 2294.00
1643, 2295.00
1644, 2296.00
1645, 2298.00
1646, 2299.00
1647, 2300.00
1648, 2302.00
1649, 2304.00
1650, 2307.00

1750, 2789.00
1751, 2788.00
1752, 2785.00
1753, 2789.00
1754, 2788.00
1755, 2788.00
1756, 2786.00
1757, 2788.00
1758, 2787.00
1759, 2786.00
1760, 2788.00
1761, 2788.00
1762, 2785.00
1763, 2785.00
1764, 2786.00
1765, 2786.00
1766, 2787.00
1767, 2786.00
1768, 2787.00
1769, 2785.00
1770, 2784.00
1771, 2784.00
1772, 2785.00
1773, 2782.00
1774, 2783.00
1775, 2783.00
1776, 2782.00
1777, 2781.00
1778, 2780.00
1779, 2779.00
1780, 2780.00
1781, 2779.00
1782, 2779.00
1783, 2777.00
1784, 2778.00
1785, 2777.00
1786, 2777.00
1787, 2777.00
1788, 2777.00
1789, 2773.00
1790, 2772.00
1791, 2774.00
1792, 2773.00
1793, 2771.00
1794, 2771.00
1795, 2771.00
1796, 2769.00
1797, 2767.00
1798, 2770.00
1799, 2769.00
1800, 2766.00
1801, 2766.00
1802, 2765.00
1803, 2767.00
1804, 2765.00
1805, 2765.00
1806, 2761.00
1807, 2763.00
1808, 2763.00
1809, 2761.00
1810, 2762.00
1811, 2761.00
1812, 2759.00
1813, 2759.00
1814, 2760.00
1815, 2758.00
1816, 2756.00
1817, 2756.00
1818, 2753.00
1819, 2754.00
1820, 2751.00
1821, 2751.00
1822, 2751.00
1823, 2747.00
1824, 2748.00
1825, 2747.00
1826, 2747.00
1827, 2742.00
1828, 2742.00
1829, 2740.00
1830, 2737.00
1831, 2734.00
1832, 2733.00
1833, 2732.00
1834, 2729.00
1835, 2728.00
1836, 2725.00
1837, 2722.00
1838, 2721.00
1839, 2719.00
1840, 2717.00
1841, 2713.00
1842, 2710.00
1843, 2708.00
1844, 2704.00
1845, 2702.00
1846, 2698.00
1847, 2697.00
1848, 2694.00
1849, 2689.00
1850, 2689.00
1851, 2685.00
1852, 2682.00
1853, 2682.00
1854, 2678.00
1855, 2674.00
1856, 2673.00
1857, 2669.00
1858, 2665.00
1859, 2667.00
1860, 2661.00
1861, 2658.00
1862, 2657.00
1863, 2655.00
1864, 2653.00
1865, 2652.00
1866, 2648.00
1867, 2645.00
1868, 2644.00
1869, 2642.00
1870, 2641.00
1871, 2640.00
1872, 2637.00
1873, 2636.00
1874, 2634.00
1875, 2632.00
1876, 2633.00
1877, 2630.00
1878, 2630.00
1879, 2626.00
1880, 2627.00
1881, 2625.00
1882, 2624.00
1883, 2624.00
1884, 2625.00
1885, 2623.00
1886, 2621.00
1887, 2620.00
1888, 2621.00
1889, 2620.00
1890, 2618.00
1891, 2617.00
1892, 2617.00
1893, 2617.00
1894, 2617.00
1895, 2615.00
1896, 2615.00
1897, 2615.00
1898, 2615.00
1899, 2614.00
1900, 2612.00
1901, 2614.00
1902, 2615.00
1903, 2613.00
1904, 2611.00
1905, 2613.00
1906, 2610.00
1907, 2613.00
1908, 2612.00
1909, 2611.00
1910, 2611.00
1911, 2608.00
1912, 2609.00
1913, 2610.00
1914, 2609.00
1915, 2608.00
1916, 2610.00
1917, 2607.00
1918, 2609.00
1919, 2606.00
1920, 2607.00
1921, 2608.00
1922, 2608.00
1923, 2607.00
1924, 2607.00
1925, 2607.00
1926, 2608.00
1927, 2609.00
1928, 2607.00
1929, 2607.00
1930, 2607.00
1931, 2606.00
1932, 2608.00
1933, 2608.00
1934, 2607.00
1935, 2607.00
1936, 2608.00
1937, 2608.00
1938, 2609.00
1939, 2609.00
1940, 2609.00
1941, 2610.00
1942, 2607.00
1943, 2609.00
1944, 2609.00
1945, 2610.00
1946, 2609.00
1947, 2608.00
1948, 2612.00
1949, 2608.00
1950, 2611.00
1951, 2612.00
1952, 2612.00
1953, 2612.00
1954, 2612.00
1955, 2613.00
1956, 2611.00
1957, 2612.00
1958, 2615.00
1959, 2614.00
1960, 2615.00
1961, 2615.00
1962, 2616.00
1963, 2616.00
1964, 2614.00
1965, 2616.00
1966, 2618.00
1967, 2618.00
1968, 2616.00
1969, 2617.00
1970, 2618.00
1971, 2620.00
1972, 2621.00
1973, 2622.00
1974, 2622.00
1975, 2623.00
1976, 2624.00
1977, 2622.00
1978, 2623.00
1979, 2625.00
1980, 2626.00
1981, 2627.00
1982, 2626.00
1983, 2628.00
1984, 2629.00
1985, 2629.00
1986, 2629.00
1987, 2629.00
1988, 2630.00
1989, 2630.00
1990, 2630.00
1991, 2633.00
1992, 2632.00
1993, 2633.00
1994, 2635.00
1995, 2633.00
1996, 2635.00
1997, 2633.00
1998, 2636.00
1999, 2637.00
2000, 2638.00
2001, 2639.00
2002, 2636.00
2003, 2639.00
2004, 2641.00
2005, 2639.00
2006, 2641.00
2007, 2640.00
2008, 2641.00
2009, 2642.00
2010, 2643.00
2011, 2645.00
2012, 2643.00
2013, 2645.00
2014, 2647.00
2015, 2647.00
2016, 2648.00
2017, 2647.00
2018, 2648.00
2019, 2649.00
2020, 2649.00
2021, 2649.00
2022, 2650.00
2023, 2651.00
2024, 2652.00
2025, 2654.00
2026, 2654.00
2027, 2654.00
2028, 2654.00
2029, 2653.00
2030, 2657.00
2031, 2657.00
2032, 2657.00
2033, 2658.00
2034, 2660.00
2035, 2661.00
2036, 2660.00
2037, 2663.00
2038, 2663.00
2039, 2663.00
2040, 2664.00
2041, 2664.00
2042, 2666.00
2043, 2668.00
2044, 2667.00
2045, 2666.00
2046, 2669.00
2047, 2670.00
2048, 2671.00
2049, 2673.00
2050, 2675.00
2051, 2673.00
2052, 2674.00
2053, 2675.00
2054, 2676.00
2055, 2677.00
2056, 2679.00
2057, 2679.00
2058, 2680.00
2059, 2681.00
2060, 2681.00
2061, 2682.00
2062, 2686.00
2063, 2684.00
2064, 2685.00
2065, 2687.00
2066, 2687.00
2067, 2688.00
2068, 2689.00
2069, 2690.00
2070, 2691.00
2071, 2693.00
2072, 2694.00
2073, 2695.00
2074, 2695.00
2075, 2697.00
2076, 2698.00
2077, 2697.00
2078, 2700.00
2079, 2700.00
2080, 2700.00
2081, 2702.00
2082, 2702.00
2083, 2702.00
2084, 2704.00
2085, 2705.00
2086, 2705.00
2087, 2707.00
2088, 2708.00
2089, 2708.00
2090, 2708.00
2091, 2709.00
2092, 2710.00
2093, 2711.00
2094, 2711.00
2095, 2713.00
2096, 2713.00
2097, 2713.00
2098, 2714.00
2099, 2714.00
2100, 2715.00
2101, 2716.00
2102, 2717.00
2103, 2717.00
2104, 2719.00
2105, 2718.00
2106, 2720.00
2107, 2719.00
2108, 2719.00
2109, 2721.00
2110, 2721.00
2111, 2721.00
2112, 2722.00
2113, 2724.00
2114, 2724.00
2115, 2725.00
2116, 2726.00
2117, 2724.00
2118, 2726.00
2119, 2726.00
2120, 2725.00
2121, 2726.00
2122, 2727.00
2123, 2728.00
2124, 2726.00
2125, 2728.00
2126, 2728.00
2127, 2726.00
2128, 2729.00
2129, 2730.00
2130, 2729.00
2131, 2731.00
2132, 2730.00
2133, 2729.00
2134, 2730.00
2135, 2731.00
2136, 2732.00
2137, 2732.00
2138, 2733.00
2139, 2733.00
2140, 2734.00
2141, 2734.00
2142, 2734.00
2143, 2736.00
2144, 2734.00
2145, 2735.00
2146, 2736.00
2147, 2735.00
2148, 2736.00
2149, 2737.00
2150, 2736.00
