FW version: 24
Log Version: 3.0.3

General Info:
       Command/Macro Performed,            Timestamp,             Device ID, COM Port, UART/I2C, Test Name, Host Major, Host Minor, Host Revision, Host Git Commit
            Single_measurement,  2023_06_27_11_11_10,       Insight2_F4_xxx,    USB-C,      USB,          ,          0,          1,             1,      4031237645

Show Spectrometer Status:
l0_version, f4_version, battery_perc, battery_mVolt, accelerometer_temp, accelerometer_x, accelerometer_y, accelerometer_z, compass_temp, compass_x, compass_y, compass_z, lamp_0, lamp_1, gain_0, gain_1
        17,         24,           95,          2076,               5440,           65444,              52,           18196,            0,     65533,     65407,     65343,   2457,   2457,    1,    1

Temperature Statistic Info:
NTC AVG [°C], NTC2 AVG [°C]
      36.920,        36.608

Statistic Info:
M1:  num,      min,      max,   median,      AVG,      STD,M2:  num,      min,      max,   median,      AVG,      STD
     301,   867.00,   997.00,   895.00,   909.67,  39.4748,     401,  1249.00,  1326.00,  1281.00,  1283.46,  24.7094,

Measurements:
Wavelength, Data Amplitude
1350, 889.00
1351, 890.00
1352, 889.00
1353, 888.00
1354, 886.00
1355, 886.00
1356, 887.00
1357, 886.00
1358, 886.00
1359, 885.00
1360, 885.00
1361, 885.00
1362, 885.00
1363, 884.00
1364, 882.00
1365, 882.00
1366, 882.00
1367, 881.00
1368, 881.00
1369, 880.00
1370, 881.00
1371, 879.00
1372, 877.00
1373, 878.00
1374, 878.00
1375, 877.00
1376, 876.00
1377, 875.00
1378, 876.00
1379, 875.00
1380, 874.00
1381, 874.00
1382, 874.00
1383, 873.00
1384, 872.00
1385, 872.00
1386, 872.00
1387, 872.00
1388, 871.00
1389, 872.00
1390, 870.00
1391, 871.00
1392, 871.00
1393, 871.00
1394, 871.00
1395, 870.00
1396, 870.00
1397, 871.00
1398, 870.00
1399, 869.00
1400, 869.00
1401, 869.00
1402, 869.00
1403, 869.00
1404, 869.00
1405, 869.00
1406, 868.00
1407, 870.00
1408, 867.00
1409, 868.00
1410, 869.00
1411, 868.00
1412, 869.00
1413, 868.00
1414, 869.00
1415, 868.00
1416, 868.00
1417, 869.00
1418, 868.00
1419, 869.00
1420, 869.00
1421, 868.00
1422, 868.00
1423, 869.00
1424, 869.00
1425, 868.00
1426, 868.00
1427, 869.00
1428, 868.00
1429, 869.00
1430, 869.00
1431, 869.00
1432, 869.00
1433, 869.00
1434, 870.00
1435, 870.00
1436, 870.00
1437, 870.00
1438, 870.00
1439, 870.00
1440, 870.00
1441, 871.00
1442, 871.00
1443, 872.00
1444, 872.00
1445, 872.00
1446, 872.00
1447, 872.00
1448, 873.00
1449, 873.00
1450, 873.00
1451, 875.00
1452, 874.00
1453, 874.00
1454, 874.00
1455, 874.00
1456, 875.00
1457, 875.00
1458, 875.00
1459, 875.00
1460, 876.00
1461, 876.00
1462, 877.00
1463, 877.00
1464, 877.00
1465, 877.00
1466, 878.00
1467, 879.00
1468, 879.00
1469, 879.00
1470, 879.00
1471, 880.00
1472, 880.00
1473, 881.00
1474, 881.00
1475, 881.00
1476, 882.00
1477, 882.00
1478, 884.00
1479, 883.00
1480, 884.00
1481, 885.00
1482, 885.00
1483, 886.00
1484, 887.00
1485, 887.00
1486, 888.00
1487, 889.00
1488, 888.00
1489, 889.00
1490, 890.00
1491, 890.00
1492, 891.00
1493, 891.00
1494, 891.00
1495, 892.00
1496, 892.00
1497, 893.00
1498, 894.00
1499, 894.00
1500, 895.00
1501, 895.00
1502, 897.00
1503, 896.00
1504, 897.00
1505, 897.00
1506, 898.00
1507, 899.00
1508, 899.00
1509, 900.00
1510, 900.00
1511, 901.00
1512, 901.00
1513, 902.00
1514, 903.00
1515, 903.00
1516, 904.00
1517, 904.00
1518, 905.00
1519, 905.00
1520, 906.00
1521, 907.00
1522, 908.00
1523, 908.00
1524, 909.00
1525, 909.00
1526, 910.00
1527, 911.00
1528, 912.00
1529, 912.00
1530, 913.00
1531, 913.00
1532, 914.00
1533, 915.00
1534, 915.00
1535, 916.00
1536, 915.00
1537, 917.00
1538, 919.00
1539, 919.00
1540, 919.00
1541, 920.00
1542, 919.00
1543, 920.00
1544, 921.00
1545, 922.00
1546, 922.00
1547, 922.00
1548, 924.00
1549, 923.00
1550, 924.00
1551, 925.00
1552, 925.00
1553, 925.00
1554, 926.00
1555, 928.00
1556, 929.00
1557, 929.00
1558, 929.00
1559, 930.00
1560, 931.00
1561, 932.00
1562, 933.00
1563, 933.00
1564, 934.00
1565, 935.00
1566, 935.00
1567, 936.00
1568, 937.00
1569, 937.00
1570, 938.00
1571, 939.00
1572, 940.00
1573, 940.00
1574, 940.00
1575, 941.00
1576, 941.00
1577, 942.00
1578, 944.00
1579, 944.00
1580, 944.00
1581, 945.00
1582, 946.00
1583, 947.00
1584, 946.00
1585, 947.00
1586, 949.00
1587, 948.00
1588, 949.00
1589, 950.00
1590, 950.00
1591, 951.00
1592, 951.00
1593, 953.00
1594, 954.00
1595, 954.00
1596, 955.00
1597, 955.00
1598, 956.00
1599, 957.00
1600, 958.00
1601, 958.00
1602, 959.00
1603, 959.00
1604, 961.00
1605, 961.00
1606, 962.00
1607, 962.00
1608, 963.00
1609, 964.00
1610, 965.00
1611, 965.00
1612, 966.00
1613, 968.00
1614, 968.00
1615, 969.00
1616, 970.00
1617, 970.00
1618, 971.00
1619, 972.00
1620, 973.00
1621, 975.00
1622, 975.00
1623, 976.00
1624, 977.00
1625, 977.00
1626, 978.00
1627, 979.00
1628, 980.00
1629, 981.00
1630, 981.00
1631, 983.00
1632, 983.00
1633, 984.00
1634, 985.00
1635, 985.00
1636, 987.00
1637, 987.00
1638, 988.00
1639, 988.00
1640, 989.00
1641, 990.00
1642, 990.00
1643, 990.00
1644, 992.00
1645, 992.00
1646, 993.00
1647, 994.00
1648, 995.00
1649, 996.00
1650, 997.00

1750, 1325.00
1751, 1323.00
1752, 1326.00
1753, 1326.00
1754, 1325.00
1755, 1324.00
1756, 1324.00
1757, 1324.00
1758, 1325.00
1759, 1323.00
1760, 1324.00
1761, 1324.00
1762, 1325.00
1763, 1324.00
1764, 1322.00
1765, 1324.00
1766, 1325.00
1767, 1325.00
1768, 1324.00
1769, 1322.00
1770, 1324.00
1771, 1322.00
1772, 1324.00
1773, 1325.00
1774, 1322.00
1775, 1323.00
1776, 1323.00
1777, 1321.00
1778, 1322.00
1779, 1322.00
1780, 1321.00
1781, 1321.00
1782, 1320.00
1783, 1321.00
1784, 1319.00
1785, 1320.00
1786, 1319.00
1787, 1319.00
1788, 1318.00
1789, 1320.00
1790, 1319.00
1791, 1319.00
1792, 1318.00
1793, 1317.00
1794, 1317.00
1795, 1318.00
1796, 1316.00
1797, 1317.00
1798, 1318.00
1799, 1315.00
1800, 1317.00
1801, 1316.00
1802, 1316.00
1803, 1315.00
1804, 1316.00
1805, 1315.00
1806, 1316.00
1807, 1314.00
1808, 1314.00
1809, 1314.00
1810, 1314.00
1811, 1314.00
1812, 1311.00
1813, 1312.00
1814, 1311.00
1815, 1313.00
1816, 1313.00
1817, 1312.00
1818, 1313.00
1819, 1310.00
1820, 1310.00
1821, 1309.00
1822, 1309.00
1823, 1310.00
1824, 1309.00
1825, 1309.00
1826, 1308.00
1827, 1308.00
1828, 1307.00
1829, 1307.00
1830, 1305.00
1831, 1304.00
1832, 1303.00
1833, 1302.00
1834, 1300.00
1835, 1300.00
1836, 1300.00
1837, 1298.00
1838, 1299.00
1839, 1299.00
1840, 1296.00
1841, 1295.00
1842, 1294.00
1843, 1292.00
1844, 1291.00
1845, 1290.00
1846, 1289.00
1847, 1288.00
1848, 1287.00
1849, 1285.00
1850, 1285.00
1851, 1285.00
1852, 1284.00
1853, 1281.00
1854, 1280.00
1855, 1279.00
1856, 1279.00
1857, 1278.00
1858, 1274.00
1859, 1275.00
1860, 1274.00
1861, 1271.00
1862, 1270.00
1863, 1271.00
1864, 1270.00
1865, 1269.00
1866, 1268.00
1867, 1265.00
1868, 1267.00
1869, 1265.00
1870, 1263.00
1871, 1263.00
1872, 1264.00
1873, 1262.00
1874, 1262.00
1875, 1261.00
1876, 1261.00
1877, 1260.00
1878, 1259.00
1879, 1258.00
1880, 1259.00
1881, 1258.00
1882, 1259.00
1883, 1257.00
1884, 1257.00
1885, 1258.00
1886, 1257.00
1887, 1257.00
1888, 1256.00
1889, 1255.00
1890, 1255.00
1891, 1256.00
1892, 1255.00
1893, 1253.00
1894, 1255.00
1895, 1254.00
1896, 1255.00
1897, 1255.00
1898, 1254.00
1899, 1255.00
1900, 1255.00
1901, 1254.00
1902, 1254.00
1903, 1253.00
1904, 1254.00
1905, 1254.00
1906, 1253.00
1907, 1251.00
1908, 1252.00
1909, 1252.00
1910, 1251.00
1911, 1252.00
1912, 1251.00
1913, 1252.00
1914, 1252.00
1915, 1252.00
1916, 1253.00
1917, 1251.00
1918, 1252.00
1919, 1251.00
1920, 1251.00
1921, 1252.00
1922, 1250.00
1923, 1253.00
1924, 1251.00
1925, 1251.00
1926, 1249.00
1927, 1250.00
1928, 1250.00
1929, 1251.00
1930, 1252.00
1931, 1251.00
1932, 1252.00
1933, 1251.00
1934, 1250.00
1935, 1251.00
1936, 1251.00
1937, 1251.00
1938, 1253.00
1939, 1251.00
1940, 1252.00
1941, 1253.00
1942, 1250.00
1943, 1251.00
1944, 1253.00
1945, 1251.00
1946, 1252.00
1947, 1253.00
1948, 1252.00
1949, 1252.00
1950, 1254.00
1951, 1253.00
1952, 1253.00
1953, 1252.00
1954, 1253.00
1955, 1254.00
1956, 1254.00
1957, 1253.00
1958, 1255.00
1959, 1253.00
1960, 1256.00
1961, 1254.00
1962, 1256.00
1963, 1255.00
1964, 1255.00
1965, 1254.00
1966, 1256.00
1967, 1257.00
1968, 1256.00
1969, 1256.00
1970, 1255.00
1971, 1256.00
1972, 1256.00
1973, 1257.00
1974, 1256.00
1975, 1258.00
1976, 1259.00
1977, 1259.00
1978, 1260.00
1979, 1258.00
1980, 1261.00
1981, 1258.00
1982, 1258.00
1983, 1259.00
1984, 1261.00
1985, 1258.00
1986, 1261.00
1987, 1260.00
1988, 1259.00
1989, 1262.00
1990, 1261.00
1991, 1262.00
1992, 1261.00
1993, 1262.00
1994, 1263.00
1995, 1263.00
1996, 1263.00
1997, 1265.00
1998, 1263.00
1999, 1265.00
2000, 1265.00
2001, 1265.00
2002, 1265.00
2003, 1264.00
2004, 1265.00
2005, 1266.00
2006, 1266.00
2007, 1265.00
2008, 1267.00
2009, 1267.00
2010, 1265.00
2011, 1268.00
2012, 1266.00
2013, 1269.00
2014, 1269.00
2015, 1267.00
2016, 1269.00
2017, 1269.00
2018, 1268.00
2019, 1269.00
2020, 1270.00
2021, 1270.00
2022, 1271.00
2023, 1272.00
2024, 1270.00
2025, 1272.00
2026, 1271.00
2027, 1273.00
2028, 1272.00
2029, 1272.00
2030, 1272.00
2031, 1271.00
2032, 1273.00
2033, 1274.00
2034, 1273.00
2035, 1274.00
2036, 1274.00
2037, 1275.00
2038, 1275.00
2039, 1275.00
2040, 1276.00
2041, 1275.00
2042, 1277.00
2043, 1277.00
2044, 1277.00
2045, 1278.00
2046, 1278.00
2047, 1279.00
2048, 1279.00
2049, 1280.00
2050, 1279.00
2051, 1280.00
2052, 1281.00
2053, 1281.00
2054, 1282.00
2055, 1283.00
2056, 1284.00
2057, 1283.00
2058, 1281.00
2059, 1285.00
2060, 1284.00
2061, 1285.00
2062, 1285.00
2063, 1286.00
2064, 1286.00
2065, 1286.00
2066, 1286.00
2067, 1287.00
2068, 1287.00
2069, 1289.00
2070, 1289.00
2071, 1289.00
2072, 1289.00
2073, 1290.00
2074, 1290.00
2075, 1291.00
2076, 1292.00
2077, 1291.00
2078, 1292.00
2079, 1293.00
2080, 1293.00
2081, 1294.00
2082, 1294.00
2083, 1293.00
2084, 1295.00
2085, 1294.00
2086, 1295.00
2087, 1298.00
2088, 1296.00
2089, 1297.00
2090, 1296.00
2091, 1296.00
2092, 1299.00
2093, 1298.00
2094, 1296.00
2095, 1299.00
2096, 1298.00
2097, 1300.00
2098, 1300.00
2099, 1300.00
2100, 1300.00
2101, 1300.00
2102, 1299.00
2103, 1300.00
2104, 1299.00
2105, 1302.00
2106, 1300.00
2107, 1302.00
2108, 1301.00
2109, 1301.00
2110, 1303.00
2111, 1302.00
2112, 1301.00
2113, 1302.00
2114, 1302.00
2115, 1301.00
2116, 1302.00
2117, 1305.00
2118, 1302.00
2119, 1302.00
2120, 1304.00
2121, 1303.00
2122, 1306.00
2123, 1304.00
2124, 1303.00
2125, 1305.00
2126, 1305.00
2127, 1304.00
2128, 1306.00
2129, 1306.00
2130, 1306.00
2131, 1305.00
2132, 1306.00
2133, 1308.00
2134, 1306.00
2135, 1306.00
2136, 1309.00
2137, 1307.00
2138, 1307.00
2139, 1309.00
2140, 1308.00
2141, 1308.00
2142, 1307.00
2143, 1306.00
2144, 1309.00
2145, 1308.00
2146, 1309.00
2147, 1309.00
2148, 1309.00
2149, 1307.00
2150, 1309.00
