FW version: 24
Log Version: 3.0.3

General Info:
       Command/Macro Performed,            Timestamp,             Device ID, COM Port, UART/I2C, Test Name, Host Major, Host Minor, Host Revision, Host Git Commit
            Single_measurement,  2023_07_18_10_46_59,       Insight2_F4_xxx,    USB-C,      USB,          ,          0,          1,             1,      4031237645

Show Spectrometer Status:
l0_version, f4_version, battery_perc, battery_mVolt, accelerometer_temp, accelerometer_x, accelerometer_y, accelerometer_z, compass_temp, compass_x, compass_y, compass_z, lamp_0, lamp_1, gain_0, gain_1
        17,         24,           71,          1980,               5728,           65164,            1184,           18744,            0,     65421,     65443,     18875,   3276,   3276,      1,      1

Temperature Statistic Info:
NTC AVG [°C], NTC2 AVG [°C]
      36.322,        36.033

Statistic Info:
M1:  num,      min,      max,   median,      AVG,      STD,M2:  num,      min,      max,   median,      AVG,      STD
     301,  2180.00,  2499.00,  2245.00,  2285.14,  98.6952,     401,  2710.00,  2902.00,  2788.00,  2792.52,  61.6795,

Measurements:
Wavelength, Data Amplitude
1350, 2242.00
1351, 2241.00
1352, 2241.00
1353, 2240.00
1354, 2239.00
1355, 2237.00
1356, 2237.00
1357, 2235.00
1358, 2235.00
1359, 2233.00
1360, 2232.00
1361, 2230.00
1362, 2228.00
1363, 2227.00
1364, 2226.00
1365, 2224.00
1366, 2221.00
1367, 2221.00
1368, 2219.00
1369, 2218.00
1370, 2216.00
1371, 2213.00
1372, 2212.00
1373, 2210.00
1374, 2210.00
1375, 2208.00
1376, 2206.00
1377, 2205.00
1378, 2203.00
1379, 2203.00
1380, 2201.00
1381, 2200.00
1382, 2199.00
1383, 2198.00
1384, 2196.00
1385, 2195.00
1386, 2195.00
1387, 2194.00
1388, 2192.00
1389, 2192.00
1390, 2192.00
1391, 2190.00
1392, 2191.00
1393, 2190.00
1394, 2189.00
1395, 2188.00
1396, 2187.00
1397, 2187.00
1398, 2187.00
1399, 2186.00
1400, 2185.00
1401, 2186.00
1402, 2185.00
1403, 2183.00
1404, 2184.00
1405, 2184.00
1406, 2184.00
1407, 2184.00
1408, 2183.00
1409, 2183.00
1410, 2182.00
1411, 2182.00
1412, 2181.00
1413, 2182.00
1414, 2181.00
1415, 2181.00
1416, 2181.00
1417, 2181.00
1418, 2182.00
1419, 2180.00
1420, 2181.00
1421, 2181.00
1422, 2181.00
1423, 2181.00
1424, 2183.00
1425, 2181.00
1426, 2180.00
1427, 2182.00
1428, 2182.00
1429, 2182.00
1430, 2183.00
1431, 2184.00
1432, 2182.00
1433, 2183.00
1434, 2184.00
1435, 2183.00
1436, 2184.00
1437, 2185.00
1438, 2185.00
1439, 2185.00
1440, 2186.00
1441, 2187.00
1442, 2188.00
1443, 2187.00
1444, 2188.00
1445, 2189.00
1446, 2189.00
1447, 2189.00
1448, 2191.00
1449, 2191.00
1450, 2190.00
1451, 2192.00
1452, 2192.00
1453, 2193.00
1454, 2194.00
1455, 2194.00
1456, 2195.00
1457, 2196.00
1458, 2196.00
1459, 2198.00
1460, 2198.00
1461, 2200.00
1462, 2200.00
1463, 2201.00
1464, 2202.00
1465, 2201.00
1466, 2204.00
1467, 2205.00
1468, 2205.00
1469, 2205.00
1470, 2207.00
1471, 2208.00
1472, 2210.00
1473, 2211.00
1474, 2212.00
1475, 2212.00
1476, 2214.00
1477, 2215.00
1478, 2217.00
1479, 2218.00
1480, 2219.00
1481, 2219.00
1482, 2222.00
1483, 2222.00
1484, 2224.00
1485, 2224.00
1486, 2226.00
1487, 2227.00
1488, 2229.00
1489, 2229.00
1490, 2231.00
1491, 2233.00
1492, 2233.00
1493, 2236.00
1494, 2236.00
1495, 2238.00
1496, 2239.00
1497, 2241.00
1498, 2241.00
1499, 2242.00
1500, 2245.00
1501, 2246.00
1502, 2247.00
1503, 2249.00
1504, 2249.00
1505, 2252.00
1506, 2253.00
1507, 2254.00
1508, 2255.00
1509, 2257.00
1510, 2258.00
1511, 2259.00
1512, 2261.00
1513, 2262.00
1514, 2264.00
1515, 2266.00
1516, 2267.00
1517, 2268.00
1518, 2270.00
1519, 2271.00
1520, 2272.00
1521, 2275.00
1522, 2276.00
1523, 2277.00
1524, 2280.00
1525, 2280.00
1526, 2282.00
1527, 2283.00
1528, 2286.00
1529, 2287.00
1530, 2289.00
1531, 2291.00
1532, 2291.00
1533, 2293.00
1534, 2295.00
1535, 2296.00
1536, 2299.00
1537, 2299.00
1538, 2303.00
1539, 2303.00
1540, 2306.00
1541, 2306.00
1542, 2308.00
1543, 2311.00
1544, 2311.00
1545, 2314.00
1546, 2316.00
1547, 2317.00
1548, 2318.00
1549, 2319.00
1550, 2321.00
1551, 2323.00
1552, 2324.00
1553, 2327.00
1554, 2328.00
1555, 2330.00
1556, 2333.00
1557, 2333.00
1558, 2336.00
1559, 2338.00
1560, 2339.00
1561, 2342.00
1562, 2343.00
1563, 2344.00
1564, 2346.00
1565, 2348.00
1566, 2350.00
1567, 2353.00
1568, 2353.00
1569, 2356.00
1570, 2357.00
1571, 2359.00
1572, 2362.00
1573, 2362.00
1574, 2364.00
1575, 2366.00
1576, 2369.00
1577, 2370.00
1578, 2371.00
1579, 2373.00
1580, 2375.00
1581, 2376.00
1582, 2378.00
1583, 2380.00
1584, 2381.00
1585, 2383.00
1586, 2385.00
1587, 2387.00
1588, 2388.00
1589, 2389.00
1590, 2391.00
1591, 2393.00
1592, 2394.00
1593, 2395.00
1594, 2396.00
1595, 2398.00
1596, 2400.00
1597, 2402.00
1598, 2403.00
1599, 2406.00
1600, 2406.00
1601, 2409.00
1602, 2411.00
1603, 2411.00
1604, 2414.00
1605, 2416.00
1606, 2418.00
1607, 2419.00
1608, 2422.00
1609, 2422.00
1610, 2425.00
1611, 2427.00
1612, 2429.00
1613, 2431.00
1614, 2433.00
1615, 2433.00
1616, 2436.00
1617, 2439.00
1618, 2441.00
1619, 2443.00
1620, 2444.00
1621, 2445.00
1622, 2449.00
1623, 2451.00
1624, 2451.00
1625, 2456.00
1626, 2457.00
1627, 2458.00
1628, 2460.00
1629, 2462.00
1630, 2463.00
1631, 2465.00
1632, 2467.00
1633, 2469.00
1634, 2471.00
1635, 2473.00
1636, 2475.00
1637, 2477.00
1638, 2478.00
1639, 2481.00
1640, 2482.00
1641, 2482.00
1642, 2484.00
1643, 2487.00
1644, 2487.00
1645, 2490.00
1646, 2491.00
1647, 2493.00
1648, 2494.00
1649, 2496.00
1650, 2499.00

1750, 2900.00
1751, 2901.00
1752, 2901.00
1753, 2900.00
1754, 2900.00
1755, 2900.00
1756, 2899.00
1757, 2902.00
1758, 2899.00
1759, 2900.00
1760, 2899.00
1761, 2899.00
1762, 2899.00
1763, 2900.00
1764, 2897.00
1765, 2900.00
1766, 2900.00
1767, 2897.00
1768, 2897.00
1769, 2899.00
1770, 2896.00
1771, 2898.00
1772, 2897.00
1773, 2895.00
1774, 2895.00
1775, 2896.00
1776, 2893.00
1777, 2893.00
1778, 2893.00
1779, 2892.00
1780, 2894.00
1781, 2892.00
1782, 2891.00
1783, 2889.00
1784, 2889.00
1785, 2888.00
1786, 2889.00
1787, 2887.00
1788, 2888.00
1789, 2886.00
1790, 2885.00
1791, 2884.00
1792, 2884.00
1793, 2883.00
1794, 2882.00
1795, 2882.00
1796, 2882.00
1797, 2880.00
1798, 2878.00
1799, 2877.00
1800, 2879.00
1801, 2878.00
1802, 2879.00
1803, 2875.00
1804, 2877.00
1805, 2876.00
1806, 2875.00
1807, 2875.00
1808, 2875.00
1809, 2873.00
1810, 2872.00
1811, 2871.00
1812, 2870.00
1813, 2870.00
1814, 2869.00
1815, 2870.00
1816, 2868.00
1817, 2866.00
1818, 2867.00
1819, 2863.00
1820, 2863.00
1821, 2862.00
1822, 2862.00
1823, 2859.00
1824, 2859.00
1825, 2858.00
1826, 2855.00
1827, 2854.00
1828, 2852.00
1829, 2851.00
1830, 2850.00
1831, 2849.00
1832, 2845.00
1833, 2843.00
1834, 2841.00
1835, 2839.00
1836, 2836.00
1837, 2834.00
1838, 2831.00
1839, 2829.00
1840, 2827.00
1841, 2825.00
1842, 2824.00
1843, 2818.00
1844, 2816.00
1845, 2813.00
1846, 2811.00
1847, 2807.00
1848, 2806.00
1849, 2803.00
1850, 2799.00
1851, 2796.00
1852, 2793.00
1853, 2790.00
1854, 2789.00
1855, 2783.00
1856, 2781.00
1857, 2780.00
1858, 2777.00
1859, 2774.00
1860, 2770.00
1861, 2768.00
1862, 2767.00
1863, 2764.00
1864, 2762.00
1865, 2758.00
1866, 2754.00
1867, 2756.00
1868, 2753.00
1869, 2751.00
1870, 2747.00
1871, 2747.00
1872, 2745.00
1873, 2744.00
1874, 2742.00
1875, 2740.00
1876, 2739.00
1877, 2739.00
1878, 2736.00
1879, 2734.00
1880, 2734.00
1881, 2733.00
1882, 2732.00
1883, 2731.00
1884, 2730.00
1885, 2729.00
1886, 2728.00
1887, 2727.00
1888, 2727.00
1889, 2729.00
1890, 2724.00
1891, 2724.00
1892, 2724.00
1893, 2723.00
1894, 2723.00
1895, 2722.00
1896, 2722.00
1897, 2722.00
1898, 2719.00
1899, 2720.00
1900, 2720.00
1901, 2720.00
1902, 2719.00
1903, 2718.00
1904, 2719.00
1905, 2718.00
1906, 2718.00
1907, 2716.00
1908, 2717.00
1909, 2716.00
1910, 2715.00
1911, 2716.00
1912, 2715.00
1913, 2716.00
1914, 2715.00
1915, 2715.00
1916, 2713.00
1917, 2715.00
1918, 2715.00
1919, 2715.00
1920, 2710.00
1921, 2713.00
1922, 2713.00
1923, 2713.00
1924, 2713.00
1925, 2712.00
1926, 2714.00
1927, 2713.00
1928, 2714.00
1929, 2713.00
1930, 2711.00
1931, 2713.00
1932, 2713.00
1933, 2713.00
1934, 2713.00
1935, 2712.00
1936, 2714.00
1937, 2713.00
1938, 2714.00
1939, 2713.00
1940, 2715.00
1941, 2715.00
1942, 2715.00
1943, 2713.00
1944, 2714.00
1945, 2716.00
1946, 2714.00
1947, 2717.00
1948, 2717.00
1949, 2715.00
1950, 2716.00
1951, 2717.00
1952, 2715.00
1953, 2717.00
1954, 2718.00
1955, 2718.00
1956, 2717.00
1957, 2716.00
1958, 2718.00
1959, 2719.00
1960, 2719.00
1961, 2720.00
1962, 2719.00
1963, 2722.00
1964, 2723.00
1965, 2723.00
1966, 2722.00
1967, 2723.00
1968, 2723.00
1969, 2727.00
1970, 2727.00
1971, 2724.00
1972, 2725.00
1973, 2727.00
1974, 2727.00
1975, 2729.00
1976, 2729.00
1977, 2729.00
1978, 2731.00
1979, 2729.00
1980, 2731.00
1981, 2731.00
1982, 2733.00
1983, 2733.00
1984, 2734.00
1985, 2733.00
1986, 2734.00
1987, 2737.00
1988, 2737.00
1989, 2737.00
1990, 2736.00
1991, 2741.00
1992, 2739.00
1993, 2741.00
1994, 2741.00
1995, 2741.00
1996, 2741.00
1997, 2743.00
1998, 2742.00
1999, 2743.00
2000, 2745.00
2001, 2744.00
2002, 2745.00
2003, 2747.00
2004, 2747.00
2005, 2747.00
2006, 2748.00
2007, 2749.00
2008, 2750.00
2009, 2748.00
2010, 2751.00
2011, 2751.00
2012, 2753.00
2013, 2753.00
2014, 2754.00
2015, 2754.00
2016, 2755.00
2017, 2756.00
2018, 2754.00
2019, 2757.00
2020, 2758.00
2021, 2757.00
2022, 2758.00
2023, 2760.00
2024, 2760.00
2025, 2761.00
2026, 2761.00
2027, 2762.00
2028, 2763.00
2029, 2765.00
2030, 2765.00
2031, 2765.00
2032, 2766.00
2033, 2766.00
2034, 2769.00
2035, 2768.00
2036, 2769.00
2037, 2769.00
2038, 2771.00
2039, 2772.00
2040, 2771.00
2041, 2771.00
2042, 2774.00
2043, 2775.00
2044, 2775.00
2045, 2777.00
2046, 2778.00
2047, 2777.00
2048, 2779.00
2049, 2781.00
2050, 2782.00
2051, 2782.00
2052, 2785.00
2053, 2784.00
2054, 2786.00
2055, 2788.00
2056, 2789.00
2057, 2790.00
2058, 2790.00
2059, 2791.00
2060, 2790.00
2061, 2791.00
2062, 2794.00
2063, 2795.00
2064, 2796.00
2065, 2794.00
2066, 2798.00
2067, 2799.00
2068, 2797.00
2069, 2799.00
2070, 2801.00
2071, 2802.00
2072, 2804.00
2073, 2805.00
2074, 2806.00
2075, 2807.00
2076, 2808.00
2077, 2809.00
2078, 2810.00
2079, 2812.00
2080, 2811.00
2081, 2813.00
2082, 2813.00
2083, 2814.00
2084, 2814.00
2085, 2815.00
2086, 2816.00
2087, 2818.00
2088, 2816.00
2089, 2818.00
2090, 2821.00
2091, 2819.00
2092, 2820.00
2093, 2821.00
2094, 2823.00
2095, 2823.00
2096, 2823.00
2097, 2823.00
2098, 2824.00
2099, 2827.00
2100, 2826.00
2101, 2826.00
2102, 2825.00
2103, 2829.00
2104, 2829.00
2105, 2830.00
2106, 2830.00
2107, 2829.00
2108, 2832.00
2109, 2830.00
2110, 2833.00
2111, 2832.00
2112, 2833.00
2113, 2832.00
2114, 2833.00
2115, 2833.00
2116, 2833.00
2117, 2836.00
2118, 2836.00
2119, 2836.00
2120, 2835.00
2121, 2837.00
2122, 2837.00
2123, 2837.00
2124, 2838.00
2125, 2838.00
2126, 2840.00
2127, 2840.00
2128, 2839.00
2129, 2841.00
2130, 2840.00
2131, 2840.00
2132, 2842.00
2133, 2841.00
2134, 2842.00
2135, 2843.00
2136, 2842.00
2137, 2842.00
2138, 2842.00
2139, 2845.00
2140, 2843.00
2141, 2844.00
2142, 2843.00
2143, 2846.00
2144, 2846.00
2145, 2844.00
2146, 2845.00
2147, 2846.00
2148, 2846.00
2149, 2847.00
2150, 2846.00
