FW version: 24
Log Version: 3.0.3

General Info:
       Command/Macro Performed,            Timestamp,             Device ID, COM Port, UART/I2C, Test Name, Host Major, Host Minor, Host Revision, Host Git Commit
            Single_measurement,  2023_07_04_10_39_43,       Insight2_F4_xxx,    USB-C,      USB,          ,          0,          1,             1,      4031237645

Show Spectrometer Status:
l0_version, f4_version, battery_perc, battery_mVolt, accelerometer_temp, accelerometer_x, accelerometer_y, accelerometer_z, compass_temp, compass_x, compass_y, compass_z, lamp_0, lamp_1, gain_0, gain_1
        17,         24,            0,          1738,               4944,           64808,            1560,           18908,            0,     65387,     65405,     18909,   2457,   2457,      1,      1

Temperature Statistic Info:
NTC AVG [°C], NTC2 AVG [°C]
      33.131,        32.797

Statistic Info:
M1:  num,      min,      max,   median,      AVG,      STD,M2:  num,      min,      max,   median,      AVG,      STD
     301,   915.00,  1046.00,   943.00,   958.80,  40.6779,     401,  1331.00,  1410.00,  1365.00,  1367.03,  25.5832,

Measurements:
Wavelength, Data Amplitude
1350, 936.00
1351, 937.00
1352, 936.00
1353, 935.00
1354, 935.00
1355, 935.00
1356, 936.00
1357, 934.00
1358, 934.00
1359, 933.00
1360, 933.00
1361, 932.00
1362, 933.00
1363, 932.00
1364, 930.00
1365, 930.00
1366, 930.00
1367, 930.00
1368, 929.00
1369, 929.00
1370, 927.00
1371, 928.00
1372, 926.00
1373, 926.00
1374, 925.00
1375, 925.00
1376, 924.00
1377, 924.00
1378, 922.00
1379, 923.00
1380, 923.00
1381, 922.00
1382, 922.00
1383, 921.00
1384, 920.00
1385, 920.00
1386, 920.00
1387, 920.00
1388, 919.00
1389, 919.00
1390, 920.00
1391, 919.00
1392, 919.00
1393, 918.00
1394, 918.00
1395, 917.00
1396, 918.00
1397, 918.00
1398, 918.00
1399, 917.00
1400, 917.00
1401, 918.00
1402, 917.00
1403, 917.00
1404, 916.00
1405, 917.00
1406, 917.00
1407, 917.00
1408, 917.00
1409, 917.00
1410, 916.00
1411, 916.00
1412, 916.00
1413, 916.00
1414, 916.00
1415, 916.00
1416, 916.00
1417, 916.00
1418, 917.00
1419, 916.00
1420, 917.00
1421, 917.00
1422, 916.00
1423, 915.00
1424, 916.00
1425, 916.00
1426, 916.00
1427, 917.00
1428, 917.00
1429, 916.00
1430, 917.00
1431, 917.00
1432, 917.00
1433, 917.00
1434, 917.00
1435, 917.00
1436, 917.00
1437, 918.00
1438, 918.00
1439, 918.00
1440, 917.00
1441, 918.00
1442, 919.00
1443, 919.00
1444, 921.00
1445, 919.00
1446, 920.00
1447, 920.00
1448, 920.00
1449, 920.00
1450, 922.00
1451, 921.00
1452, 921.00
1453, 921.00
1454, 921.00
1455, 922.00
1456, 922.00
1457, 923.00
1458, 923.00
1459, 923.00
1460, 924.00
1461, 924.00
1462, 924.00
1463, 925.00
1464, 925.00
1465, 925.00
1466, 926.00
1467, 926.00
1468, 927.00
1469, 927.00
1470, 928.00
1471, 927.00
1472, 928.00
1473, 928.00
1474, 929.00
1475, 929.00
1476, 930.00
1477, 931.00
1478, 932.00
1479, 932.00
1480, 932.00
1481, 933.00
1482, 933.00
1483, 934.00
1484, 933.00
1485, 935.00
1486, 935.00
1487, 936.00
1488, 937.00
1489, 937.00
1490, 937.00
1491, 939.00
1492, 940.00
1493, 940.00
1494, 939.00
1495, 942.00
1496, 941.00
1497, 942.00
1498, 943.00
1499, 943.00
1500, 943.00
1501, 944.00
1502, 945.00
1503, 946.00
1504, 946.00
1505, 946.00
1506, 947.00
1507, 948.00
1508, 948.00
1509, 949.00
1510, 950.00
1511, 950.00
1512, 951.00
1513, 951.00
1514, 952.00
1515, 953.00
1516, 954.00
1517, 954.00
1518, 955.00
1519, 955.00
1520, 956.00
1521, 956.00
1522, 957.00
1523, 959.00
1524, 959.00
1525, 959.00
1526, 960.00
1527, 960.00
1528, 961.00
1529, 963.00
1530, 963.00
1531, 964.00
1532, 965.00
1533, 965.00
1534, 966.00
1535, 966.00
1536, 966.00
1537, 967.00
1538, 968.00
1539, 968.00
1540, 969.00
1541, 969.00
1542, 970.00
1543, 971.00
1544, 971.00
1545, 972.00
1546, 973.00
1547, 973.00
1548, 973.00
1549, 974.00
1550, 975.00
1551, 976.00
1552, 976.00
1553, 978.00
1554, 977.00
1555, 979.00
1556, 978.00
1557, 978.00
1558, 979.00
1559, 981.00
1560, 982.00
1561, 983.00
1562, 983.00
1563, 983.00
1564, 984.00
1565, 985.00
1566, 986.00
1567, 987.00
1568, 987.00
1569, 987.00
1570, 988.00
1571, 989.00
1572, 990.00
1573, 990.00
1574, 992.00
1575, 991.00
1576, 992.00
1577, 993.00
1578, 995.00
1579, 994.00
1580, 995.00
1581, 995.00
1582, 996.00
1583, 997.00
1584, 998.00
1585, 999.00
1586, 998.00
1587, 999.00
1588, 1000.00
1589, 1001.00
1590, 1002.00
1591, 1002.00
1592, 1003.00
1593, 1004.00
1594, 1003.00
1595, 1005.00
1596, 1005.00
1597, 1006.00
1598, 1007.00
1599, 1007.00
1600, 1007.00
1601, 1008.00
1602, 1010.00
1603, 1010.00
1604, 1011.00
1605, 1012.00
1606, 1013.00
1607, 1012.00
1608, 1013.00
1609, 1014.00
1610, 1016.00
1611, 1017.00
1612, 1018.00
1613, 1017.00
1614, 1018.00
1615, 1019.00
1616, 1021.00
1617, 1021.00
1618, 1022.00
1619, 1024.00
1620, 1024.00
1621, 1025.00
1622, 1026.00
1623, 1026.00
1624, 1028.00
1625, 1028.00
1626, 1030.00
1627, 1030.00
1628, 1031.00
1629, 1032.00
1630, 1032.00
1631, 1033.00
1632, 1034.00
1633, 1035.00
1634, 1036.00
1635, 1037.00
1636, 1037.00
1637, 1038.00
1638, 1038.00
1639, 1040.00
1640, 1040.00
1641, 1040.00
1642, 1041.00
1643, 1042.00
1644, 1042.00
1645, 1043.00
1646, 1043.00
1647, 1045.00
1648, 1045.00
1649, 1046.00
1650, 1046.00

1750, 1410.00
1751, 1407.00
1752, 1408.00
1753, 1408.00
1754, 1409.00
1755, 1407.00
1756, 1406.00
1757, 1407.00
1758, 1408.00
1759, 1409.00
1760, 1409.00
1761, 1408.00
1762, 1409.00
1763, 1409.00
1764, 1409.00
1765, 1407.00
1766, 1407.00
1767, 1407.00
1768, 1409.00
1769, 1407.00
1770, 1408.00
1771, 1407.00
1772, 1408.00
1773, 1407.00
1774, 1408.00
1775, 1407.00
1776, 1407.00
1777, 1406.00
1778, 1406.00
1779, 1405.00
1780, 1406.00
1781, 1406.00
1782, 1407.00
1783, 1404.00
1784, 1406.00
1785, 1405.00
1786, 1404.00
1787, 1404.00
1788, 1405.00
1789, 1403.00
1790, 1401.00
1791, 1404.00
1792, 1403.00
1793, 1403.00
1794, 1403.00
1795, 1401.00
1796, 1401.00
1797, 1401.00
1798, 1402.00
1799, 1402.00
1800, 1400.00
1801, 1401.00
1802, 1400.00
1803, 1401.00
1804, 1400.00
1805, 1399.00
1806, 1399.00
1807, 1399.00
1808, 1399.00
1809, 1400.00
1810, 1399.00
1811, 1399.00
1812, 1398.00
1813, 1398.00
1814, 1398.00
1815, 1397.00
1816, 1397.00
1817, 1397.00
1818, 1396.00
1819, 1397.00
1820, 1394.00
1821, 1395.00
1822, 1395.00
1823, 1394.00
1824, 1393.00
1825, 1394.00
1826, 1394.00
1827, 1391.00
1828, 1391.00
1829, 1391.00
1830, 1391.00
1831, 1389.00
1832, 1389.00
1833, 1389.00
1834, 1387.00
1835, 1385.00
1836, 1386.00
1837, 1385.00
1838, 1383.00
1839, 1383.00
1840, 1383.00
1841, 1380.00
1842, 1380.00
1843, 1378.00
1844, 1376.00
1845, 1375.00
1846, 1375.00
1847, 1374.00
1848, 1374.00
1849, 1370.00
1850, 1370.00
1851, 1369.00
1852, 1369.00
1853, 1367.00
1854, 1365.00
1855, 1365.00
1856, 1362.00
1857, 1361.00
1858, 1361.00
1859, 1360.00
1860, 1357.00
1861, 1358.00
1862, 1356.00
1863, 1355.00
1864, 1354.00
1865, 1354.00
1866, 1352.00
1867, 1350.00
1868, 1349.00
1869, 1349.00
1870, 1349.00
1871, 1348.00
1872, 1347.00
1873, 1346.00
1874, 1346.00
1875, 1343.00
1876, 1344.00
1877, 1343.00
1878, 1343.00
1879, 1342.00
1880, 1341.00
1881, 1342.00
1882, 1341.00
1883, 1341.00
1884, 1341.00
1885, 1340.00
1886, 1340.00
1887, 1338.00
1888, 1341.00
1889, 1339.00
1890, 1339.00
1891, 1337.00
1892, 1338.00
1893, 1338.00
1894, 1337.00
1895, 1338.00
1896, 1336.00
1897, 1336.00
1898, 1335.00
1899, 1337.00
1900, 1335.00
1901, 1335.00
1902, 1335.00
1903, 1336.00
1904, 1335.00
1905, 1335.00
1906, 1335.00
1907, 1333.00
1908, 1334.00
1909, 1335.00
1910, 1335.00
1911, 1335.00
1912, 1334.00
1913, 1332.00
1914, 1332.00
1915, 1334.00
1916, 1333.00
1917, 1333.00
1918, 1333.00
1919, 1333.00
1920, 1334.00
1921, 1332.00
1922, 1332.00
1923, 1332.00
1924, 1333.00
1925, 1334.00
1926, 1331.00
1927, 1333.00
1928, 1335.00
1929, 1334.00
1930, 1334.00
1931, 1334.00
1932, 1334.00
1933, 1333.00
1934, 1333.00
1935, 1334.00
1936, 1334.00
1937, 1333.00
1938, 1334.00
1939, 1333.00
1940, 1334.00
1941, 1333.00
1942, 1335.00
1943, 1334.00
1944, 1333.00
1945, 1335.00
1946, 1334.00
1947, 1334.00
1948, 1334.00
1949, 1334.00
1950, 1335.00
1951, 1335.00
1952, 1335.00
1953, 1335.00
1954, 1335.00
1955, 1335.00
1956, 1336.00
1957, 1335.00
1958, 1337.00
1959, 1336.00
1960, 1337.00
1961, 1337.00
1962, 1337.00
1963, 1337.00
1964, 1337.00
1965, 1337.00
1966, 1337.00
1967, 1338.00
1968, 1339.00
1969, 1340.00
1970, 1339.00
1971, 1339.00
1972, 1338.00
1973, 1339.00
1974, 1341.00
1975, 1342.00
1976, 1341.00
1977, 1340.00
1978, 1340.00
1979, 1340.00
1980, 1342.00
1981, 1340.00
1982, 1343.00
1983, 1342.00
1984, 1341.00
1985, 1342.00
1986, 1343.00
1987, 1343.00
1988, 1344.00
1989, 1343.00
1990, 1344.00
1991, 1344.00
1992, 1346.00
1993, 1347.00
1994, 1346.00
1995, 1345.00
1996, 1346.00
1997, 1346.00
1998, 1346.00
1999, 1346.00
2000, 1347.00
2001, 1347.00
2002, 1348.00
2003, 1347.00
2004, 1348.00
2005, 1349.00
2006, 1347.00
2007, 1348.00
2008, 1348.00
2009, 1349.00
2010, 1350.00
2011, 1350.00
2012, 1349.00
2013, 1351.00
2014, 1351.00
2015, 1350.00
2016, 1352.00
2017, 1352.00
2018, 1352.00
2019, 1354.00
2020, 1351.00
2021, 1354.00
2022, 1353.00
2023, 1354.00
2024, 1353.00
2025, 1354.00
2026, 1354.00
2027, 1354.00
2028, 1355.00
2029, 1355.00
2030, 1356.00
2031, 1356.00
2032, 1357.00
2033, 1357.00
2034, 1358.00
2035, 1357.00
2036, 1357.00
2037, 1358.00
2038, 1358.00
2039, 1358.00
2040, 1358.00
2041, 1359.00
2042, 1359.00
2043, 1359.00
2044, 1361.00
2045, 1361.00
2046, 1363.00
2047, 1361.00
2048, 1364.00
2049, 1363.00
2050, 1363.00
2051, 1363.00
2052, 1365.00
2053, 1363.00
2054, 1365.00
2055, 1365.00
2056, 1367.00
2057, 1368.00
2058, 1367.00
2059, 1368.00
2060, 1367.00
2061, 1368.00
2062, 1368.00
2063, 1369.00
2064, 1370.00
2065, 1370.00
2066, 1370.00
2067, 1369.00
2068, 1372.00
2069, 1372.00
2070, 1372.00
2071, 1373.00
2072, 1374.00
2073, 1373.00
2074, 1375.00
2075, 1374.00
2076, 1376.00
2077, 1375.00
2078, 1376.00
2079, 1376.00
2080, 1376.00
2081, 1379.00
2082, 1377.00
2083, 1378.00
2084, 1379.00
2085, 1379.00
2086, 1379.00
2087, 1379.00
2088, 1380.00
2089, 1378.00
2090, 1381.00
2091, 1382.00
2092, 1381.00
2093, 1381.00
2094, 1382.00
2095, 1381.00
2096, 1383.00
2097, 1384.00
2098, 1383.00
2099, 1384.00
2100, 1384.00
2101, 1384.00
2102, 1384.00
2103, 1385.00
2104, 1386.00
2105, 1385.00
2106, 1384.00
2107, 1385.00
2108, 1385.00
2109, 1387.00
2110, 1386.00
2111, 1387.00
2112, 1387.00
2113, 1387.00
2114, 1387.00
2115, 1387.00
2116, 1387.00
2117, 1386.00
2118, 1387.00
2119, 1387.00
2120, 1389.00
2121, 1388.00
2122, 1389.00
2123, 1390.00
2124, 1389.00
2125, 1390.00
2126, 1390.00
2127, 1389.00
2128, 1389.00
2129, 1389.00
2130, 1390.00
2131, 1390.00
2132, 1390.00
2133, 1390.00
2134, 1392.00
2135, 1391.00
2136, 1391.00
2137, 1392.00
2138, 1391.00
2139, 1392.00
2140, 1393.00
2141, 1392.00
2142, 1391.00
2143, 1391.00
2144, 1392.00
2145, 1393.00
2146, 1391.00
2147, 1392.00
2148, 1391.00
2149, 1392.00
2150, 1394.00
