FW version: 24
Log Version: 3.0.3

General Info:
       Command/Macro Performed,            Timestamp,             Device ID, COM Port, UART/I2C, Test Name, Host Major, Host Minor, Host Revision, Host Git Commit
            Single_measurement,  2023_06_27_11_21_32,       Insight2_F4_xxx,    USB-C,      USB,          ,          0,          1,             1,      4031237645

Show Spectrometer Status:
l0_version, f4_version, battery_perc, battery_mVolt, accelerometer_temp, accelerometer_x, accelerometer_y, accelerometer_z, compass_temp, compass_x, compass_y, compass_z, lamp_0, lamp_1, gain_0, gain_1
        17,         24,           95,          2078,               5344,           65188,           65380,           18484,            0,     65524,     65391,     65407,   2047,   2047,    1,    1

Temperature Statistic Info:
NTC AVG [°C], NTC2 AVG [°C]
      36.408,        36.120

Statistic Info:
M1:  num,      min,      max,   median,      AVG,      STD,M2:  num,      min,      max,   median,      AVG,      STD
     301,   871.00,  1019.00,   902.00,   919.36,  45.6956,     401,  1292.00,  1386.00,  1330.00,  1333.55,  30.6014,

Measurements:
Wavelength, Data Amplitude
1350, 895.00
1351, 895.00
1352, 895.00
1353, 893.00
1354, 893.00
1355, 893.00
1356, 892.00
1357, 892.00
1358, 892.00
1359, 891.00
1360, 891.00
1361, 891.00
1362, 890.00
1363, 888.00
1364, 888.00
1365, 887.00
1366, 886.00
1367, 885.00
1368, 885.00
1369, 885.00
1370, 885.00
1371, 884.00
1372, 883.00
1373, 882.00
1374, 881.00
1375, 881.00
1376, 881.00
1377, 880.00
1378, 879.00
1379, 880.00
1380, 878.00
1381, 878.00
1382, 877.00
1383, 877.00
1384, 877.00
1385, 877.00
1386, 877.00
1387, 875.00
1388, 875.00
1389, 875.00
1390, 876.00
1391, 875.00
1392, 875.00
1393, 875.00
1394, 874.00
1395, 874.00
1396, 874.00
1397, 873.00
1398, 873.00
1399, 873.00
1400, 872.00
1401, 873.00
1402, 874.00
1403, 872.00
1404, 873.00
1405, 873.00
1406, 872.00
1407, 872.00
1408, 873.00
1409, 872.00
1410, 873.00
1411, 873.00
1412, 872.00
1413, 872.00
1414, 872.00
1415, 872.00
1416, 872.00
1417, 871.00
1418, 871.00
1419, 872.00
1420, 872.00
1421, 872.00
1422, 871.00
1423, 871.00
1424, 873.00
1425, 873.00
1426, 872.00
1427, 873.00
1428, 873.00
1429, 873.00
1430, 873.00
1431, 873.00
1432, 873.00
1433, 873.00
1434, 873.00
1435, 873.00
1436, 873.00
1437, 875.00
1438, 874.00
1439, 873.00
1440, 874.00
1441, 874.00
1442, 875.00
1443, 875.00
1444, 876.00
1445, 876.00
1446, 876.00
1447, 877.00
1448, 877.00
1449, 876.00
1450, 877.00
1451, 877.00
1452, 878.00
1453, 877.00
1454, 879.00
1455, 879.00
1456, 879.00
1457, 879.00
1458, 880.00
1459, 879.00
1460, 880.00
1461, 881.00
1462, 881.00
1463, 882.00
1464, 882.00
1465, 883.00
1466, 882.00
1467, 882.00
1468, 883.00
1469, 884.00
1470, 885.00
1471, 885.00
1472, 885.00
1473, 886.00
1474, 886.00
1475, 887.00
1476, 887.00
1477, 889.00
1478, 888.00
1479, 889.00
1480, 891.00
1481, 890.00
1482, 891.00
1483, 890.00
1484, 891.00
1485, 892.00
1486, 893.00
1487, 894.00
1488, 895.00
1489, 895.00
1490, 895.00
1491, 895.00
1492, 896.00
1493, 898.00
1494, 897.00
1495, 899.00
1496, 899.00
1497, 899.00
1498, 900.00
1499, 900.00
1500, 902.00
1501, 902.00
1502, 904.00
1503, 903.00
1504, 904.00
1505, 904.00
1506, 905.00
1507, 906.00
1508, 907.00
1509, 908.00
1510, 909.00
1511, 909.00
1512, 909.00
1513, 910.00
1514, 911.00
1515, 911.00
1516, 913.00
1517, 913.00
1518, 915.00
1519, 915.00
1520, 916.00
1521, 916.00
1522, 917.00
1523, 917.00
1524, 918.00
1525, 920.00
1526, 919.00
1527, 920.00
1528, 920.00
1529, 921.00
1530, 922.00
1531, 922.00
1532, 924.00
1533, 925.00
1534, 925.00
1535, 926.00
1536, 927.00
1537, 928.00
1538, 928.00
1539, 929.00
1540, 930.00
1541, 931.00
1542, 931.00
1543, 931.00
1544, 932.00
1545, 933.00
1546, 934.00
1547, 935.00
1548, 934.00
1549, 936.00
1550, 936.00
1551, 937.00
1552, 937.00
1553, 938.00
1554, 939.00
1555, 940.00
1556, 941.00
1557, 942.00
1558, 942.00
1559, 942.00
1560, 944.00
1561, 945.00
1562, 946.00
1563, 947.00
1564, 948.00
1565, 948.00
1566, 950.00
1567, 949.00
1568, 951.00
1569, 951.00
1570, 952.00
1571, 953.00
1572, 954.00
1573, 955.00
1574, 954.00
1575, 956.00
1576, 957.00
1577, 959.00
1578, 959.00
1579, 959.00
1580, 960.00
1581, 960.00
1582, 961.00
1583, 962.00
1584, 965.00
1585, 964.00
1586, 963.00
1587, 965.00
1588, 966.00
1589, 966.00
1590, 968.00
1591, 967.00
1592, 969.00
1593, 970.00
1594, 970.00
1595, 971.00
1596, 973.00
1597, 973.00
1598, 974.00
1599, 975.00
1600, 975.00
1601, 976.00
1602, 977.00
1603, 978.00
1604, 979.00
1605, 979.00
1606, 980.00
1607, 981.00
1608, 981.00
1609, 982.00
1610, 984.00
1611, 985.00
1612, 986.00
1613, 986.00
1614, 987.00
1615, 989.00
1616, 989.00
1617, 991.00
1618, 991.00
1619, 993.00
1620, 992.00
1621, 994.00
1622, 996.00
1623, 997.00
1624, 997.00
1625, 998.00
1626, 999.00
1627, 1000.00
1628, 1001.00
1629, 1002.00
1630, 1003.00
1631, 1003.00
1632, 1005.00
1633, 1005.00
1634, 1005.00
1635, 1007.00
1636, 1008.00
1637, 1009.00
1638, 1009.00
1639, 1010.00
1640, 1009.00
1641, 1011.00
1642, 1013.00
1643, 1014.00
1644, 1013.00
1645, 1015.00
1646, 1015.00
1647, 1015.00
1648, 1017.00
1649, 1017.00
1650, 1019.00

1750, 1384.00
1751, 1384.00
1752, 1383.00
1753, 1384.00
1754, 1384.00
1755, 1385.00
1756, 1384.00
1757, 1384.00
1758, 1385.00
1759, 1383.00
1760, 1385.00
1761, 1385.00
1762, 1384.00
1763, 1384.00
1764, 1383.00
1765, 1386.00
1766, 1384.00
1767, 1383.00
1768, 1385.00
1769, 1383.00
1770, 1381.00
1771, 1383.00
1772, 1383.00
1773, 1383.00
1774, 1380.00
1775, 1382.00
1776, 1382.00
1777, 1381.00
1778, 1383.00
1779, 1381.00
1780, 1381.00
1781, 1381.00
1782, 1381.00
1783, 1380.00
1784, 1380.00
1785, 1379.00
1786, 1380.00
1787, 1380.00
1788, 1378.00
1789, 1379.00
1790, 1378.00
1791, 1378.00
1792, 1377.00
1793, 1377.00
1794, 1377.00
1795, 1377.00
1796, 1376.00
1797, 1377.00
1798, 1376.00
1799, 1375.00
1800, 1375.00
1801, 1375.00
1802, 1375.00
1803, 1375.00
1804, 1373.00
1805, 1374.00
1806, 1372.00
1807, 1373.00
1808, 1371.00
1809, 1372.00
1810, 1371.00
1811, 1373.00
1812, 1373.00
1813, 1373.00
1814, 1369.00
1815, 1369.00
1816, 1369.00
1817, 1369.00
1818, 1369.00
1819, 1368.00
1820, 1369.00
1821, 1367.00
1822, 1367.00
1823, 1365.00
1824, 1366.00
1825, 1364.00
1826, 1364.00
1827, 1364.00
1828, 1363.00
1829, 1361.00
1830, 1358.00
1831, 1360.00
1832, 1359.00
1833, 1357.00
1834, 1355.00
1835, 1355.00
1836, 1355.00
1837, 1353.00
1838, 1353.00
1839, 1352.00
1840, 1350.00
1841, 1347.00
1842, 1347.00
1843, 1345.00
1844, 1344.00
1845, 1343.00
1846, 1342.00
1847, 1341.00
1848, 1340.00
1849, 1338.00
1850, 1335.00
1851, 1333.00
1852, 1331.00
1853, 1330.00
1854, 1330.00
1855, 1327.00
1856, 1326.00
1857, 1324.00
1858, 1324.00
1859, 1320.00
1860, 1320.00
1861, 1318.00
1862, 1320.00
1863, 1318.00
1864, 1317.00
1865, 1314.00
1866, 1314.00
1867, 1313.00
1868, 1312.00
1869, 1311.00
1870, 1312.00
1871, 1310.00
1872, 1308.00
1873, 1309.00
1874, 1307.00
1875, 1306.00
1876, 1306.00
1877, 1306.00
1878, 1305.00
1879, 1305.00
1880, 1305.00
1881, 1304.00
1882, 1302.00
1883, 1303.00
1884, 1303.00
1885, 1302.00
1886, 1302.00
1887, 1301.00
1888, 1298.00
1889, 1301.00
1890, 1299.00
1891, 1299.00
1892, 1299.00
1893, 1299.00
1894, 1299.00
1895, 1299.00
1896, 1299.00
1897, 1297.00
1898, 1299.00
1899, 1297.00
1900, 1296.00
1901, 1296.00
1902, 1298.00
1903, 1297.00
1904, 1296.00
1905, 1296.00
1906, 1297.00
1907, 1297.00
1908, 1296.00
1909, 1295.00
1910, 1295.00
1911, 1294.00
1912, 1295.00
1913, 1295.00
1914, 1294.00
1915, 1293.00
1916, 1295.00
1917, 1295.00
1918, 1295.00
1919, 1295.00
1920, 1293.00
1921, 1294.00
1922, 1294.00
1923, 1293.00
1924, 1292.00
1925, 1293.00
1926, 1294.00
1927, 1294.00
1928, 1293.00
1929, 1295.00
1930, 1295.00
1931, 1293.00
1932, 1294.00
1933, 1293.00
1934, 1293.00
1935, 1294.00
1936, 1296.00
1937, 1293.00
1938, 1295.00
1939, 1293.00
1940, 1293.00
1941, 1296.00
1942, 1295.00
1943, 1295.00
1944, 1296.00
1945, 1295.00
1946, 1294.00
1947, 1294.00
1948, 1296.00
1949, 1298.00
1950, 1298.00
1951, 1296.00
1952, 1296.00
1953, 1295.00
1954, 1296.00
1955, 1296.00
1956, 1296.00
1957, 1296.00
1958, 1298.00
1959, 1297.00
1960, 1299.00
1961, 1298.00
1962, 1299.00
1963, 1297.00
1964, 1298.00
1965, 1299.00
1966, 1299.00
1967, 1299.00
1968, 1299.00
1969, 1302.00
1970, 1301.00
1971, 1301.00
1972, 1301.00
1973, 1300.00
1974, 1301.00
1975, 1301.00
1976, 1302.00
1977, 1300.00
1978, 1303.00
1979, 1304.00
1980, 1304.00
1981, 1302.00
1982, 1302.00
1983, 1303.00
1984, 1305.00
1985, 1305.00
1986, 1304.00
1987, 1305.00
1988, 1306.00
1989, 1307.00
1990, 1306.00
1991, 1308.00
1992, 1308.00
1993, 1307.00
1994, 1306.00
1995, 1308.00
1996, 1308.00
1997, 1309.00
1998, 1309.00
1999, 1310.00
2000, 1308.00
2001, 1309.00
2002, 1308.00
2003, 1310.00
2004, 1312.00
2005, 1310.00
2006, 1312.00
2007, 1311.00
2008, 1310.00
2009, 1312.00
2010, 1312.00
2011, 1314.00
2012, 1314.00
2013, 1314.00
2014, 1314.00
2015, 1315.00
2016, 1312.00
2017, 1315.00
2018, 1314.00
2019, 1316.00
2020, 1317.00
2021, 1315.00
2022, 1317.00
2023, 1316.00
2024, 1316.00
2025, 1319.00
2026, 1318.00
2027, 1317.00
2028, 1317.00
2029, 1319.00
2030, 1319.00
2031, 1321.00
2032, 1319.00
2033, 1320.00
2034, 1321.00
2035, 1321.00
2036, 1322.00
2037, 1322.00
2038, 1323.00
2039, 1324.00
2040, 1324.00
2041, 1324.00
2042, 1325.00
2043, 1324.00
2044, 1325.00
2045, 1326.00
2046, 1328.00
2047, 1327.00
2048, 1327.00
2049, 1326.00
2050, 1329.00
2051, 1329.00
2052, 1331.00
2053, 1329.00
2054, 1329.00
2055, 1331.00
2056, 1330.00
2057, 1332.00
2058, 1333.00
2059, 1332.00
2060, 1334.00
2061, 1333.00
2062, 1335.00
2063, 1335.00
2064, 1337.00
2065, 1336.00
2066, 1337.00
2067, 1337.00
2068, 1338.00
2069, 1339.00
2070, 1339.00
2071, 1340.00
2072, 1340.00
2073, 1340.00
2074, 1342.00
2075, 1342.00
2076, 1343.00
2077, 1343.00
2078, 1344.00
2079, 1345.00
2080, 1345.00
2081, 1347.00
2082, 1344.00
2083, 1343.00
2084, 1344.00
2085, 1346.00
2086, 1346.00
2087, 1347.00
2088, 1348.00
2089, 1347.00
2090, 1349.00
2091, 1349.00
2092, 1350.00
2093, 1350.00
2094, 1349.00
2095, 1349.00
2096, 1351.00
2097, 1351.00
2098, 1352.00
2099, 1353.00
2100, 1353.00
2101, 1354.00
2102, 1355.00
2103, 1355.00
2104, 1354.00
2105, 1352.00
2106, 1355.00
2107, 1354.00
2108, 1356.00
2109, 1355.00
2110, 1357.00
2111, 1356.00
2112, 1357.00
2113, 1356.00
2114, 1357.00
2115, 1357.00
2116, 1357.00
2117, 1358.00
2118, 1358.00
2119, 1358.00
2120, 1359.00
2121, 1359.00
2122, 1358.00
2123, 1360.00
2124, 1359.00
2125, 1360.00
2126, 1360.00
2127, 1361.00
2128, 1360.00
2129, 1360.00
2130, 1361.00
2131, 1363.00
2132, 1361.00
2133, 1362.00
2134, 1361.00
2135, 1363.00
2136, 1362.00
2137, 1363.00
2138, 1364.00
2139, 1364.00
2140, 1363.00
2141, 1363.00
2142, 1365.00
2143, 1365.00
2144, 1365.00
2145, 1363.00
2146, 1364.00
2147, 1364.00
2148, 1365.00
2149, 1363.00
2150, 1363.00
