FW version: 24
Log Version: 3.0.3

General Info:
       Command/Macro Performed,            Timestamp,             Device ID, COM Port, UART/I2C, Test Name, Host Major, Host Minor, Host Revision, Host Git Commit
            Single_measurement,  2023_07_11_11_56_53,       Insight2_F4_xxx,    USB-C,      USB,          ,          0,          1,             1,      4031237645

Show Spectrometer Status:
l0_version, f4_version, battery_perc, battery_mVolt, accelerometer_temp, accelerometer_x, accelerometer_y, accelerometer_z, compass_temp, compass_x, compass_y, compass_z, lamp_0, lamp_1, gain_0, gain_1
        17,         24,           52,          1912,               7008,           64816,            1544,           18708,            0,     65330,     65368,     18805,   3276,   3276,      1,      1

Temperature Statistic Info:
NTC AVG [°C], NTC2 AVG [°C]
      42.434,        42.070

Statistic Info:
M1:  num,      min,      max,   median,      AVG,      STD,M2:  num,      min,      max,   median,      AVG,      STD
     301,  2178.00,  2431.00,  2227.00,  2258.03,  77.9879,     401,  2717.00,  2849.00,  2759.00,  2767.51,  40.1686,

Measurements:
Wavelength, Data Amplitude
1350, 2232.00
1351, 2232.00
1352, 2229.00
1353, 2229.00
1354, 2227.00
1355, 2227.00
1356, 2225.00
1357, 2223.00
1358, 2222.00
1359, 2220.00
1360, 2218.00
1361, 2217.00
1362, 2216.00
1363, 2214.00
1364, 2212.00
1365, 2212.00
1366, 2209.00
1367, 2208.00
1368, 2207.00
1369, 2205.00
1370, 2203.00
1371, 2202.00
1372, 2201.00
1373, 2199.00
1374, 2200.00
1375, 2198.00
1376, 2196.00
1377, 2195.00
1378, 2194.00
1379, 2194.00
1380, 2193.00
1381, 2192.00
1382, 2192.00
1383, 2190.00
1384, 2189.00
1385, 2188.00
1386, 2187.00
1387, 2186.00
1388, 2187.00
1389, 2186.00
1390, 2185.00
1391, 2184.00
1392, 2185.00
1393, 2185.00
1394, 2182.00
1395, 2182.00
1396, 2183.00
1397, 2183.00
1398, 2182.00
1399, 2181.00
1400, 2181.00
1401, 2183.00
1402, 2182.00
1403, 2181.00
1404, 2181.00
1405, 2180.00
1406, 2180.00
1407, 2179.00
1408, 2179.00
1409, 2180.00
1410, 2180.00
1411, 2179.00
1412, 2180.00
1413, 2180.00
1414, 2179.00
1415, 2179.00
1416, 2179.00
1417, 2179.00
1418, 2178.00
1419, 2179.00
1420, 2178.00
1421, 2178.00
1422, 2178.00
1423, 2179.00
1424, 2179.00
1425, 2179.00
1426, 2178.00
1427, 2179.00
1428, 2180.00
1429, 2178.00
1430, 2179.00
1431, 2179.00
1432, 2179.00
1433, 2180.00
1434, 2180.00
1435, 2181.00
1436, 2180.00
1437, 2180.00
1438, 2181.00
1439, 2182.00
1440, 2181.00
1441, 2182.00
1442, 2181.00
1443, 2182.00
1444, 2183.00
1445, 2183.00
1446, 2183.00
1447, 2185.00
1448, 2184.00
1449, 2184.00
1450, 2185.00
1451, 2186.00
1452, 2186.00
1453, 2187.00
1454, 2187.00
1455, 2187.00
1456, 2185.00
1457, 2188.00
1458, 2189.00
1459, 2189.00
1460, 2190.00
1461, 2190.00
1462, 2192.00
1463, 2191.00
1464, 2192.00
1465, 2192.00
1466, 2193.00
1467, 2196.00
1468, 2194.00
1469, 2195.00
1470, 2196.00
1471, 2196.00
1472, 2198.00
1473, 2199.00
1474, 2199.00
1475, 2199.00
1476, 2200.00
1477, 2202.00
1478, 2201.00
1479, 2203.00
1480, 2203.00
1481, 2204.00
1482, 2205.00
1483, 2206.00
1484, 2207.00
1485, 2209.00
1486, 2210.00
1487, 2211.00
1488, 2212.00
1489, 2213.00
1490, 2214.00
1491, 2214.00
1492, 2215.00
1493, 2216.00
1494, 2216.00
1495, 2218.00
1496, 2218.00
1497, 2220.00
1498, 2221.00
1499, 2221.00
1500, 2223.00
1501, 2223.00
1502, 2224.00
1503, 2226.00
1504, 2227.00
1505, 2227.00
1506, 2228.00
1507, 2229.00
1508, 2231.00
1509, 2232.00
1510, 2232.00
1511, 2234.00
1512, 2235.00
1513, 2238.00
1514, 2238.00
1515, 2239.00
1516, 2241.00
1517, 2241.00
1518, 2243.00
1519, 2243.00
1520, 2244.00
1521, 2246.00
1522, 2247.00
1523, 2249.00
1524, 2250.00
1525, 2250.00
1526, 2251.00
1527, 2254.00
1528, 2255.00
1529, 2256.00
1530, 2257.00
1531, 2258.00
1532, 2259.00
1533, 2261.00
1534, 2263.00
1535, 2264.00
1536, 2265.00
1537, 2265.00
1538, 2267.00
1539, 2269.00
1540, 2269.00
1541, 2272.00
1542, 2272.00
1543, 2275.00
1544, 2276.00
1545, 2277.00
1546, 2279.00
1547, 2279.00
1548, 2280.00
1549, 2281.00
1550, 2282.00
1551, 2285.00
1552, 2286.00
1553, 2287.00
1554, 2288.00
1555, 2290.00
1556, 2290.00
1557, 2293.00
1558, 2295.00
1559, 2296.00
1560, 2298.00
1561, 2299.00
1562, 2300.00
1563, 2303.00
1564, 2304.00
1565, 2304.00
1566, 2306.00
1567, 2310.00
1568, 2310.00
1569, 2313.00
1570, 2314.00
1571, 2314.00
1572, 2315.00
1573, 2318.00
1574, 2318.00
1575, 2320.00
1576, 2322.00
1577, 2324.00
1578, 2325.00
1579, 2326.00
1580, 2328.00
1581, 2328.00
1582, 2332.00
1583, 2332.00
1584, 2333.00
1585, 2334.00
1586, 2335.00
1587, 2336.00
1588, 2337.00
1589, 2339.00
1590, 2341.00
1591, 2342.00
1592, 2343.00
1593, 2344.00
1594, 2346.00
1595, 2347.00
1596, 2349.00
1597, 2350.00
1598, 2351.00
1599, 2353.00
1600, 2353.00
1601, 2356.00
1602, 2357.00
1603, 2358.00
1604, 2360.00
1605, 2362.00
1606, 2363.00
1607, 2365.00
1608, 2365.00
1609, 2369.00
1610, 2369.00
1611, 2370.00
1612, 2372.00
1613, 2376.00
1614, 2376.00
1615, 2378.00
1616, 2378.00
1617, 2380.00
1618, 2382.00
1619, 2385.00
1620, 2387.00
1621, 2388.00
1622, 2390.00
1623, 2391.00
1624, 2392.00
1625, 2395.00
1626, 2396.00
1627, 2396.00
1628, 2399.00
1629, 2401.00
1630, 2403.00
1631, 2404.00
1632, 2404.00
1633, 2406.00
1634, 2407.00
1635, 2409.00
1636, 2411.00
1637, 2413.00
1638, 2413.00
1639, 2416.00
1640, 2415.00
1641, 2417.00
1642, 2418.00
1643, 2420.00
1644, 2423.00
1645, 2423.00
1646, 2425.00
1647, 2426.00
1648, 2427.00
1649, 2429.00
1650, 2431.00

1750, 2849.00
1751, 2847.00
1752, 2845.00
1753, 2844.00
1754, 2846.00
1755, 2845.00
1756, 2844.00
1757, 2845.00
1758, 2846.00
1759, 2845.00
1760, 2844.00
1761, 2842.00
1762, 2845.00
1763, 2843.00
1764, 2844.00
1765, 2845.00
1766, 2842.00
1767, 2843.00
1768, 2844.00
1769, 2843.00
1770, 2843.00
1771, 2843.00
1772, 2842.00
1773, 2841.00
1774, 2841.00
1775, 2841.00
1776, 2841.00
1777, 2838.00
1778, 2839.00
1779, 2836.00
1780, 2837.00
1781, 2838.00
1782, 2838.00
1783, 2836.00
1784, 2838.00
1785, 2836.00
1786, 2833.00
1787, 2835.00
1788, 2834.00
1789, 2834.00
1790, 2833.00
1791, 2833.00
1792, 2832.00
1793, 2830.00
1794, 2832.00
1795, 2831.00
1796, 2830.00
1797, 2828.00
1798, 2830.00
1799, 2829.00
1800, 2828.00
1801, 2827.00
1802, 2827.00
1803, 2825.00
1804, 2825.00
1805, 2825.00
1806, 2823.00
1807, 2823.00
1808, 2823.00
1809, 2822.00
1810, 2821.00
1811, 2821.00
1812, 2820.00
1813, 2815.00
1814, 2819.00
1815, 2819.00
1816, 2816.00
1817, 2816.00
1818, 2813.00
1819, 2815.00
1820, 2814.00
1821, 2811.00
1822, 2810.00
1823, 2810.00
1824, 2808.00
1825, 2808.00
1826, 2806.00
1827, 2803.00
1828, 2804.00
1829, 2803.00
1830, 2802.00
1831, 2798.00
1832, 2800.00
1833, 2795.00
1834, 2793.00
1835, 2793.00
1836, 2790.00
1837, 2791.00
1838, 2788.00
1839, 2785.00
1840, 2784.00
1841, 2783.00
1842, 2781.00
1843, 2778.00
1844, 2777.00
1845, 2775.00
1846, 2773.00
1847, 2771.00
1848, 2772.00
1849, 2768.00
1850, 2769.00
1851, 2766.00
1852, 2763.00
1853, 2763.00
1854, 2762.00
1855, 2760.00
1856, 2759.00
1857, 2759.00
1858, 2755.00
1859, 2755.00
1860, 2752.00
1861, 2751.00
1862, 2752.00
1863, 2748.00
1864, 2749.00
1865, 2747.00
1866, 2745.00
1867, 2745.00
1868, 2745.00
1869, 2742.00
1870, 2740.00
1871, 2741.00
1872, 2740.00
1873, 2739.00
1874, 2737.00
1875, 2741.00
1876, 2736.00
1877, 2737.00
1878, 2734.00
1879, 2734.00
1880, 2735.00
1881, 2732.00
1882, 2734.00
1883, 2732.00
1884, 2733.00
1885, 2731.00
1886, 2731.00
1887, 2731.00
1888, 2727.00
1889, 2729.00
1890, 2730.00
1891, 2729.00
1892, 2729.00
1893, 2727.00
1894, 2729.00
1895, 2727.00
1896, 2727.00
1897, 2726.00
1898, 2727.00
1899, 2725.00
1900, 2727.00
1901, 2726.00
1902, 2727.00
1903, 2725.00
1904, 2724.00
1905, 2723.00
1906, 2722.00
1907, 2722.00
1908, 2724.00
1909, 2720.00
1910, 2722.00
1911, 2723.00
1912, 2721.00
1913, 2723.00
1914, 2722.00
1915, 2722.00
1916, 2721.00
1917, 2721.00
1918, 2722.00
1919, 2721.00
1920, 2720.00
1921, 2720.00
1922, 2718.00
1923, 2721.00
1924, 2719.00
1925, 2721.00
1926, 2720.00
1927, 2720.00
1928, 2717.00
1929, 2719.00
1930, 2718.00
1931, 2718.00
1932, 2719.00
1933, 2719.00
1934, 2720.00
1935, 2720.00
1936, 2719.00
1937, 2717.00
1938, 2719.00
1939, 2720.00
1940, 2720.00
1941, 2718.00
1942, 2721.00
1943, 2723.00
1944, 2719.00
1945, 2722.00
1946, 2721.00
1947, 2719.00
1948, 2719.00
1949, 2718.00
1950, 2720.00
1951, 2721.00
1952, 2721.00
1953, 2723.00
1954, 2722.00
1955, 2720.00
1956, 2719.00
1957, 2723.00
1958, 2720.00
1959, 2722.00
1960, 2721.00
1961, 2722.00
1962, 2723.00
1963, 2724.00
1964, 2725.00
1965, 2723.00
1966, 2725.00
1967, 2723.00
1968, 2727.00
1969, 2725.00
1970, 2726.00
1971, 2725.00
1972, 2726.00
1973, 2727.00
1974, 2725.00
1975, 2725.00
1976, 2725.00
1977, 2729.00
1978, 2727.00
1979, 2728.00
1980, 2728.00
1981, 2729.00
1982, 2728.00
1983, 2730.00
1984, 2729.00
1985, 2732.00
1986, 2729.00
1987, 2731.00
1988, 2732.00
1989, 2729.00
1990, 2732.00
1991, 2732.00
1992, 2732.00
1993, 2733.00
1994, 2733.00
1995, 2734.00
1996, 2732.00
1997, 2734.00
1998, 2736.00
1999, 2733.00
2000, 2735.00
2001, 2735.00
2002, 2734.00
2003, 2735.00
2004, 2738.00
2005, 2736.00
2006, 2735.00
2007, 2739.00
2008, 2740.00
2009, 2739.00
2010, 2739.00
2011, 2737.00
2012, 2737.00
2013, 2740.00
2014, 2739.00
2015, 2742.00
2016, 2739.00
2017, 2742.00
2018, 2741.00
2019, 2741.00
2020, 2740.00
2021, 2741.00
2022, 2743.00
2023, 2742.00
2024, 2741.00
2025, 2743.00
2026, 2745.00
2027, 2745.00
2028, 2744.00
2029, 2745.00
2030, 2745.00
2031, 2747.00
2032, 2744.00
2033, 2745.00
2034, 2748.00
2035, 2748.00
2036, 2749.00
2037, 2748.00
2038, 2749.00
2039, 2750.00
2040, 2752.00
2041, 2749.00
2042, 2752.00
2043, 2754.00
2044, 2753.00
2045, 2752.00
2046, 2753.00
2047, 2755.00
2048, 2755.00
2049, 2755.00
2050, 2757.00
2051, 2758.00
2052, 2757.00
2053, 2757.00
2054, 2758.00
2055, 2758.00
2056, 2757.00
2057, 2759.00
2058, 2762.00
2059, 2761.00
2060, 2763.00
2061, 2764.00
2062, 2762.00
2063, 2765.00
2064, 2764.00
2065, 2766.00
2066, 2766.00
2067, 2766.00
2068, 2767.00
2069, 2768.00
2070, 2768.00
2071, 2768.00
2072, 2770.00
2073, 2771.00
2074, 2771.00
2075, 2772.00
2076, 2773.00
2077, 2772.00
2078, 2773.00
2079, 2774.00
2080, 2773.00
2081, 2777.00
2082, 2775.00
2083, 2775.00
2084, 2775.00
2085, 2776.00
2086, 2777.00
2087, 2777.00
2088, 2779.00
2089, 2779.00
2090, 2778.00
2091, 2780.00
2092, 2781.00
2093, 2781.00
2094, 2782.00
2095, 2780.00
2096, 2782.00
2097, 2783.00
2098, 2781.00
2099, 2785.00
2100, 2788.00
2101, 2783.00
2102, 2784.00
2103, 2786.00
2104, 2786.00
2105, 2786.00
2106, 2787.00
2107, 2787.00
2108, 2787.00
2109, 2786.00
2110, 2788.00
2111, 2789.00
2112, 2789.00
2113, 2789.00
2114, 2788.00
2115, 2790.00
2116, 2790.00
2117, 2792.00
2118, 2789.00
2119, 2792.00
2120, 2791.00
2121, 2793.00
2122, 2791.00
2123, 2791.00
2124, 2792.00
2125, 2793.00
2126, 2792.00
2127, 2794.00
2128, 2796.00
2129, 2797.00
2130, 2796.00
2131, 2795.00
2132, 2796.00
2133, 2796.00
2134, 2797.00
2135, 2797.00
2136, 2797.00
2137, 2797.00
2138, 2798.00
2139, 2797.00
2140, 2801.00
2141, 2799.00
2142, 2800.00
2143, 2800.00
2144, 2799.00
2145, 2799.00
2146, 2800.00
2147, 2802.00
2148, 2802.00
2149, 2801.00
2150, 2800.00
