FW version: 24
Log Version: 3.0.3

General Info:
       Command/Macro Performed,            Timestamp,             Device ID, COM Port, UART/I2C, Test Name, Host Major, Host Minor, Host Revision, Host Git Commit
            Single_measurement,  2023_07_11_11_56_57,       Insight2_F4_xxx,    USB-C,      USB,          ,          0,          1,             1,      4031237645

Show Spectrometer Status:
l0_version, f4_version, battery_perc, battery_mVolt, accelerometer_temp, accelerometer_x, accelerometer_y, accelerometer_z, compass_temp, compass_x, compass_y, compass_z, lamp_0, lamp_1, gain_0, gain_1
        17,         24,           52,          1911,               7008,           64832,            1552,           18788,            0,     65378,     65368,     18788,   3276,   3276,      1,      1

Temperature Statistic Info:
NTC AVG [°C], NTC2 AVG [°C]
      42.554,        42.131

Statistic Info:
M1:  num,      min,      max,   median,      AVG,      STD,M2:  num,      min,      max,   median,      AVG,      STD
     301,  2177.00,  2430.00,  2226.00,  2257.61,  77.9202,     401,  2717.00,  2848.00,  2759.00,  2767.13,  40.1718,

Measurements:
Wavelength, Data Amplitude
1350, 2232.00
1351, 2230.00
1352, 2230.00
1353, 2229.00
1354, 2226.00
1355, 2226.00
1356, 2225.00
1357, 2222.00
1358, 2222.00
1359, 2219.00
1360, 2218.00
1361, 2218.00
1362, 2216.00
1363, 2214.00
1364, 2211.00
1365, 2211.00
1366, 2209.00
1367, 2208.00
1368, 2205.00
1369, 2204.00
1370, 2205.00
1371, 2202.00
1372, 2201.00
1373, 2201.00
1374, 2198.00
1375, 2198.00
1376, 2196.00
1377, 2195.00
1378, 2193.00
1379, 2192.00
1380, 2192.00
1381, 2191.00
1382, 2190.00
1383, 2189.00
1384, 2187.00
1385, 2187.00
1386, 2187.00
1387, 2187.00
1388, 2187.00
1389, 2185.00
1390, 2185.00
1391, 2185.00
1392, 2184.00
1393, 2185.00
1394, 2184.00
1395, 2183.00
1396, 2183.00
1397, 2183.00
1398, 2182.00
1399, 2181.00
1400, 2181.00
1401, 2182.00
1402, 2182.00
1403, 2181.00
1404, 2180.00
1405, 2180.00
1406, 2180.00
1407, 2179.00
1408, 2178.00
1409, 2180.00
1410, 2180.00
1411, 2179.00
1412, 2179.00
1413, 2179.00
1414, 2179.00
1415, 2179.00
1416, 2178.00
1417, 2178.00
1418, 2178.00
1419, 2178.00
1420, 2178.00
1421, 2179.00
1422, 2178.00
1423, 2177.00
1424, 2179.00
1425, 2178.00
1426, 2179.00
1427, 2178.00
1428, 2178.00
1429, 2179.00
1430, 2179.00
1431, 2179.00
1432, 2180.00
1433, 2179.00
1434, 2180.00
1435, 2179.00
1436, 2180.00
1437, 2181.00
1438, 2180.00
1439, 2181.00
1440, 2182.00
1441, 2182.00
1442, 2182.00
1443, 2182.00
1444, 2183.00
1445, 2181.00
1446, 2184.00
1447, 2184.00
1448, 2184.00
1449, 2184.00
1450, 2184.00
1451, 2184.00
1452, 2185.00
1453, 2186.00
1454, 2186.00
1455, 2187.00
1456, 2187.00
1457, 2187.00
1458, 2188.00
1459, 2188.00
1460, 2189.00
1461, 2189.00
1462, 2191.00
1463, 2191.00
1464, 2192.00
1465, 2192.00
1466, 2194.00
1467, 2193.00
1468, 2194.00
1469, 2195.00
1470, 2195.00
1471, 2196.00
1472, 2196.00
1473, 2198.00
1474, 2198.00
1475, 2199.00
1476, 2200.00
1477, 2200.00
1478, 2202.00
1479, 2203.00
1480, 2204.00
1481, 2204.00
1482, 2205.00
1483, 2205.00
1484, 2207.00
1485, 2208.00
1486, 2208.00
1487, 2209.00
1488, 2211.00
1489, 2212.00
1490, 2211.00
1491, 2213.00
1492, 2216.00
1493, 2215.00
1494, 2216.00
1495, 2217.00
1496, 2219.00
1497, 2219.00
1498, 2220.00
1499, 2221.00
1500, 2222.00
1501, 2224.00
1502, 2223.00
1503, 2225.00
1504, 2225.00
1505, 2227.00
1506, 2228.00
1507, 2230.00
1508, 2231.00
1509, 2231.00
1510, 2233.00
1511, 2233.00
1512, 2235.00
1513, 2235.00
1514, 2237.00
1515, 2239.00
1516, 2240.00
1517, 2240.00
1518, 2242.00
1519, 2244.00
1520, 2244.00
1521, 2245.00
1522, 2247.00
1523, 2248.00
1524, 2250.00
1525, 2251.00
1526, 2252.00
1527, 2253.00
1528, 2254.00
1529, 2256.00
1530, 2256.00
1531, 2257.00
1532, 2259.00
1533, 2261.00
1534, 2262.00
1535, 2262.00
1536, 2264.00
1537, 2265.00
1538, 2267.00
1539, 2268.00
1540, 2269.00
1541, 2272.00
1542, 2272.00
1543, 2273.00
1544, 2274.00
1545, 2277.00
1546, 2277.00
1547, 2279.00
1548, 2280.00
1549, 2281.00
1550, 2283.00
1551, 2285.00
1552, 2286.00
1553, 2287.00
1554, 2289.00
1555, 2291.00
1556, 2292.00
1557, 2294.00
1558, 2295.00
1559, 2297.00
1560, 2298.00
1561, 2299.00
1562, 2300.00
1563, 2302.00
1564, 2304.00
1565, 2304.00
1566, 2306.00
1567, 2307.00
1568, 2310.00
1569, 2311.00
1570, 2313.00
1571, 2314.00
1572, 2316.00
1573, 2317.00
1574, 2319.00
1575, 2320.00
1576, 2321.00
1577, 2324.00
1578, 2324.00
1579, 2327.00
1580, 2326.00
1581, 2330.00
1582, 2331.00
1583, 2331.00
1584, 2331.00
1585, 2334.00
1586, 2334.00
1587, 2336.00
1588, 2337.00
1589, 2338.00
1590, 2340.00
1591, 2342.00
1592, 2343.00
1593, 2345.00
1594, 2345.00
1595, 2348.00
1596, 2347.00
1597, 2349.00
1598, 2350.00
1599, 2353.00
1600, 2353.00
1601, 2355.00
1602, 2356.00
1603, 2358.00
1604, 2359.00
1605, 2361.00
1606, 2363.00
1607, 2365.00
1608, 2365.00
1609, 2367.00
1610, 2369.00
1611, 2370.00
1612, 2372.00
1613, 2374.00
1614, 2375.00
1615, 2376.00
1616, 2380.00
1617, 2381.00
1618, 2382.00
1619, 2384.00
1620, 2385.00
1621, 2387.00
1622, 2388.00
1623, 2390.00
1624, 2393.00
1625, 2394.00
1626, 2394.00
1627, 2397.00
1628, 2397.00
1629, 2400.00
1630, 2402.00
1631, 2403.00
1632, 2404.00
1633, 2407.00
1634, 2409.00
1635, 2409.00
1636, 2410.00
1637, 2411.00
1638, 2413.00
1639, 2414.00
1640, 2415.00
1641, 2416.00
1642, 2417.00
1643, 2419.00
1644, 2421.00
1645, 2423.00
1646, 2424.00
1647, 2425.00
1648, 2427.00
1649, 2428.00
1650, 2430.00

1750, 2848.00
1751, 2846.00
1752, 2845.00
1753, 2845.00
1754, 2844.00
1755, 2845.00
1756, 2845.00
1757, 2845.00
1758, 2846.00
1759, 2846.00
1760, 2843.00
1761, 2845.00
1762, 2843.00
1763, 2845.00
1764, 2845.00
1765, 2843.00
1766, 2841.00
1767, 2843.00
1768, 2842.00
1769, 2843.00
1770, 2841.00
1771, 2842.00
1772, 2841.00
1773, 2842.00
1774, 2840.00
1775, 2841.00
1776, 2838.00
1777, 2839.00
1778, 2838.00
1779, 2838.00
1780, 2839.00
1781, 2837.00
1782, 2837.00
1783, 2835.00
1784, 2836.00
1785, 2836.00
1786, 2833.00
1787, 2835.00
1788, 2833.00
1789, 2836.00
1790, 2832.00
1791, 2830.00
1792, 2830.00
1793, 2829.00
1794, 2827.00
1795, 2829.00
1796, 2827.00
1797, 2828.00
1798, 2827.00
1799, 2825.00
1800, 2827.00
1801, 2826.00
1802, 2827.00
1803, 2824.00
1804, 2825.00
1805, 2825.00
1806, 2825.00
1807, 2823.00
1808, 2823.00
1809, 2823.00
1810, 2822.00
1811, 2819.00
1812, 2818.00
1813, 2818.00
1814, 2819.00
1815, 2815.00
1816, 2818.00
1817, 2817.00
1818, 2815.00
1819, 2813.00
1820, 2813.00
1821, 2812.00
1822, 2811.00
1823, 2810.00
1824, 2809.00
1825, 2809.00
1826, 2806.00
1827, 2804.00
1828, 2804.00
1829, 2801.00
1830, 2800.00
1831, 2799.00
1832, 2798.00
1833, 2796.00
1834, 2792.00
1835, 2794.00
1836, 2791.00
1837, 2789.00
1838, 2788.00
1839, 2786.00
1840, 2785.00
1841, 2780.00
1842, 2780.00
1843, 2780.00
1844, 2777.00
1845, 2775.00
1846, 2775.00
1847, 2773.00
1848, 2773.00
1849, 2769.00
1850, 2766.00
1851, 2765.00
1852, 2765.00
1853, 2763.00
1854, 2760.00
1855, 2760.00
1856, 2760.00
1857, 2757.00
1858, 2754.00
1859, 2755.00
1860, 2754.00
1861, 2751.00
1862, 2754.00
1863, 2749.00
1864, 2748.00
1865, 2746.00
1866, 2746.00
1867, 2744.00
1868, 2745.00
1869, 2742.00
1870, 2741.00
1871, 2740.00
1872, 2739.00
1873, 2739.00
1874, 2740.00
1875, 2736.00
1876, 2737.00
1877, 2737.00
1878, 2737.00
1879, 2732.00
1880, 2737.00
1881, 2733.00
1882, 2733.00
1883, 2732.00
1884, 2731.00
1885, 2732.00
1886, 2730.00
1887, 2731.00
1888, 2730.00
1889, 2730.00
1890, 2729.00
1891, 2729.00
1892, 2728.00
1893, 2727.00
1894, 2728.00
1895, 2727.00
1896, 2726.00
1897, 2726.00
1898, 2725.00
1899, 2723.00
1900, 2723.00
1901, 2723.00
1902, 2726.00
1903, 2723.00
1904, 2720.00
1905, 2725.00
1906, 2722.00
1907, 2722.00
1908, 2722.00
1909, 2724.00
1910, 2721.00
1911, 2721.00
1912, 2723.00
1913, 2721.00
1914, 2722.00
1915, 2720.00
1916, 2721.00
1917, 2720.00
1918, 2721.00
1919, 2721.00
1920, 2718.00
1921, 2719.00
1922, 2720.00
1923, 2720.00
1924, 2718.00
1925, 2721.00
1926, 2720.00
1927, 2720.00
1928, 2718.00
1929, 2720.00
1930, 2720.00
1931, 2719.00
1932, 2719.00
1933, 2718.00
1934, 2720.00
1935, 2720.00
1936, 2719.00
1937, 2719.00
1938, 2717.00
1939, 2720.00
1940, 2718.00
1941, 2720.00
1942, 2720.00
1943, 2719.00
1944, 2718.00
1945, 2719.00
1946, 2720.00
1947, 2719.00
1948, 2721.00
1949, 2718.00
1950, 2720.00
1951, 2721.00
1952, 2721.00
1953, 2721.00
1954, 2717.00
1955, 2719.00
1956, 2722.00
1957, 2722.00
1958, 2721.00
1959, 2722.00
1960, 2721.00
1961, 2722.00
1962, 2721.00
1963, 2722.00
1964, 2722.00
1965, 2723.00
1966, 2723.00
1967, 2724.00
1968, 2721.00
1969, 2725.00
1970, 2723.00
1971, 2727.00
1972, 2723.00
1973, 2724.00
1974, 2724.00
1975, 2726.00
1976, 2726.00
1977, 2727.00
1978, 2726.00
1979, 2726.00
1980, 2729.00
1981, 2729.00
1982, 2725.00
1983, 2729.00
1984, 2731.00
1985, 2728.00
1986, 2730.00
1987, 2729.00
1988, 2731.00
1989, 2730.00
1990, 2732.00
1991, 2731.00
1992, 2733.00
1993, 2731.00
1994, 2731.00
1995, 2733.00
1996, 2735.00
1997, 2734.00
1998, 2733.00
1999, 2733.00
2000, 2735.00
2001, 2736.00
2002, 2735.00
2003, 2737.00
2004, 2737.00
2005, 2737.00
2006, 2738.00
2007, 2736.00
2008, 2736.00
2009, 2737.00
2010, 2739.00
2011, 2741.00
2012, 2738.00
2013, 2738.00
2014, 2741.00
2015, 2741.00
2016, 2739.00
2017, 2740.00
2018, 2742.00
2019, 2742.00
2020, 2741.00
2021, 2742.00
2022, 2741.00
2023, 2742.00
2024, 2743.00
2025, 2742.00
2026, 2743.00
2027, 2746.00
2028, 2745.00
2029, 2745.00
2030, 2746.00
2031, 2747.00
2032, 2746.00
2033, 2748.00
2034, 2749.00
2035, 2749.00
2036, 2751.00
2037, 2748.00
2038, 2749.00
2039, 2749.00
2040, 2751.00
2041, 2753.00
2042, 2751.00
2043, 2752.00
2044, 2751.00
2045, 2750.00
2046, 2753.00
2047, 2752.00
2048, 2755.00
2049, 2752.00
2050, 2754.00
2051, 2756.00
2052, 2757.00
2053, 2758.00
2054, 2759.00
2055, 2758.00
2056, 2759.00
2057, 2758.00
2058, 2761.00
2059, 2761.00
2060, 2761.00
2061, 2763.00
2062, 2762.00
2063, 2763.00
2064, 2763.00
2065, 2763.00
2066, 2765.00
2067, 2764.00
2068, 2765.00
2069, 2768.00
2070, 2769.00
2071, 2768.00
2072, 2768.00
2073, 2768.00
2074, 2767.00
2075, 2770.00
2076, 2772.00
2077, 2773.00
2078, 2775.00
2079, 2772.00
2080, 2775.00
2081, 2775.00
2082, 2774.00
2083, 2776.00
2084, 2776.00
2085, 2778.00
2086, 2778.00
2087, 2775.00
2088, 2777.00
2089, 2780.00
2090, 2778.00
2091, 2778.00
2092, 2781.00
2093, 2780.00
2094, 2780.00
2095, 2783.00
2096, 2782.00
2097, 2782.00
2098, 2785.00
2099, 2782.00
2100, 2783.00
2101, 2783.00
2102, 2785.00
2103, 2784.00
2104, 2786.00
2105, 2786.00
2106, 2785.00
2107, 2788.00
2108, 2786.00
2109, 2787.00
2110, 2787.00
2111, 2788.00
2112, 2787.00
2113, 2789.00
2114, 2788.00
2115, 2788.00
2116, 2791.00
2117, 2790.00
2118, 2791.00
2119, 2791.00
2120, 2791.00
2121, 2792.00
2122, 2792.00
2123, 2792.00
2124, 2792.00
2125, 2793.00
2126, 2793.00
2127, 2794.00
2128, 2796.00
2129, 2795.00
2130, 2797.00
2131, 2796.00
2132, 2795.00
2133, 2795.00
2134, 2797.00
2135, 2797.00
2136, 2796.00
2137, 2796.00
2138, 2797.00
2139, 2796.00
2140, 2799.00
2141, 2799.00
2142, 2797.00
2143, 2798.00
2144, 2800.00
2145, 2802.00
2146, 2798.00
2147, 2801.00
2148, 2800.00
2149, 2801.00
2150, 2802.00
