FW version: 24
Log Version: 3.0.3

General Info:
       Command/Macro Performed,            Timestamp,             Device ID, COM Port, UART/I2C, Test Name, Host Major, Host Minor, Host Revision, Host Git Commit
            Single_measurement,  2023_06_30_11_15_11,       Insight2_F4_xxx,    USB-C,      USB,          ,          0,          1,             1,      4031237645

Show Spectrometer Status:
l0_version, f4_version, battery_perc, battery_mVolt, accelerometer_temp, accelerometer_x, accelerometer_y, accelerometer_z, compass_temp, compass_x, compass_y, compass_z, lamp_0, lamp_1, gain_0, gain_1
        17,         24,           94,          2076,               6160,           65348,             516,           18472,            0,     65351,     65374,     18472,   3276,   3276,      1,      1

Temperature Statistic Info:
NTC AVG [°C], NTC2 AVG [°C]
      39.145,        38.854

Statistic Info:
M1:  num,      min,      max,   median,      AVG,      STD,M2:  num,      min,      max,   median,      AVG,      STD
     301,  2046.00,  2361.00,  2108.00,  2149.76,  98.1367,     401,  2588.00,  2778.00,  2664.00,  2669.89,  61.6155,

Measurements:
Wavelength, Data Amplitude
1350, 2108.00
1351, 2107.00
1352, 2106.00
1353, 2105.00
1354, 2102.00
1355, 2102.00
1356, 2101.00
1357, 2099.00
1358, 2098.00
1359, 2097.00
1360, 2095.00
1361, 2095.00
1362, 2093.00
1363, 2091.00
1364, 2089.00
1365, 2087.00
1366, 2086.00
1367, 2085.00
1368, 2083.00
1369, 2082.00
1370, 2081.00
1371, 2078.00
1372, 2076.00
1373, 2075.00
1374, 2073.00
1375, 2072.00
1376, 2070.00
1377, 2069.00
1378, 2068.00
1379, 2065.00
1380, 2066.00
1381, 2064.00
1382, 2063.00
1383, 2062.00
1384, 2060.00
1385, 2060.00
1386, 2058.00
1387, 2058.00
1388, 2057.00
1389, 2056.00
1390, 2055.00
1391, 2056.00
1392, 2055.00
1393, 2054.00
1394, 2054.00
1395, 2053.00
1396, 2052.00
1397, 2052.00
1398, 2052.00
1399, 2051.00
1400, 2050.00
1401, 2051.00
1402, 2051.00
1403, 2049.00
1404, 2050.00
1405, 2049.00
1406, 2049.00
1407, 2047.00
1408, 2046.00
1409, 2047.00
1410, 2048.00
1411, 2047.00
1412, 2048.00
1413, 2047.00
1414, 2047.00
1415, 2046.00
1416, 2046.00
1417, 2047.00
1418, 2047.00
1419, 2046.00
1420, 2048.00
1421, 2046.00
1422, 2047.00
1423, 2046.00
1424, 2047.00
1425, 2048.00
1426, 2047.00
1427, 2048.00
1428, 2047.00
1429, 2048.00
1430, 2047.00
1431, 2048.00
1432, 2048.00
1433, 2049.00
1434, 2049.00
1435, 2049.00
1436, 2049.00
1437, 2050.00
1438, 2051.00
1439, 2051.00
1440, 2051.00
1441, 2051.00
1442, 2053.00
1443, 2053.00
1444, 2054.00
1445, 2054.00
1446, 2054.00
1447, 2055.00
1448, 2055.00
1449, 2057.00
1450, 2057.00
1451, 2057.00
1452, 2059.00
1453, 2059.00
1454, 2059.00
1455, 2059.00
1456, 2061.00
1457, 2062.00
1458, 2063.00
1459, 2064.00
1460, 2064.00
1461, 2065.00
1462, 2066.00
1463, 2067.00
1464, 2067.00
1465, 2068.00
1466, 2070.00
1467, 2070.00
1468, 2071.00
1469, 2073.00
1470, 2074.00
1471, 2074.00
1472, 2075.00
1473, 2076.00
1474, 2078.00
1475, 2080.00
1476, 2080.00
1477, 2081.00
1478, 2082.00
1479, 2084.00
1480, 2084.00
1481, 2085.00
1482, 2087.00
1483, 2088.00
1484, 2089.00
1485, 2090.00
1486, 2091.00
1487, 2092.00
1488, 2094.00
1489, 2096.00
1490, 2097.00
1491, 2097.00
1492, 2098.00
1493, 2100.00
1494, 2101.00
1495, 2103.00
1496, 2104.00
1497, 2106.00
1498, 2108.00
1499, 2108.00
1500, 2108.00
1501, 2110.00
1502, 2112.00
1503, 2113.00
1504, 2114.00
1505, 2116.00
1506, 2116.00
1507, 2119.00
1508, 2121.00
1509, 2122.00
1510, 2122.00
1511, 2125.00
1512, 2126.00
1513, 2126.00
1514, 2129.00
1515, 2131.00
1516, 2132.00
1517, 2133.00
1518, 2134.00
1519, 2137.00
1520, 2139.00
1521, 2139.00
1522, 2141.00
1523, 2143.00
1524, 2144.00
1525, 2146.00
1526, 2147.00
1527, 2148.00
1528, 2150.00
1529, 2152.00
1530, 2153.00
1531, 2154.00
1532, 2157.00
1533, 2157.00
1534, 2160.00
1535, 2161.00
1536, 2164.00
1537, 2164.00
1538, 2166.00
1539, 2167.00
1540, 2170.00
1541, 2171.00
1542, 2173.00
1543, 2174.00
1544, 2176.00
1545, 2178.00
1546, 2179.00
1547, 2181.00
1548, 2182.00
1549, 2183.00
1550, 2186.00
1551, 2187.00
1552, 2189.00
1553, 2190.00
1554, 2192.00
1555, 2193.00
1556, 2196.00
1557, 2198.00
1558, 2201.00
1559, 2202.00
1560, 2203.00
1561, 2204.00
1562, 2208.00
1563, 2210.00
1564, 2211.00
1565, 2212.00
1566, 2215.00
1567, 2215.00
1568, 2218.00
1569, 2221.00
1570, 2223.00
1571, 2222.00
1572, 2225.00
1573, 2227.00
1574, 2229.00
1575, 2231.00
1576, 2231.00
1577, 2233.00
1578, 2236.00
1579, 2236.00
1580, 2238.00
1581, 2240.00
1582, 2242.00
1583, 2245.00
1584, 2244.00
1585, 2247.00
1586, 2248.00
1587, 2251.00
1588, 2251.00
1589, 2254.00
1590, 2256.00
1591, 2256.00
1592, 2258.00
1593, 2259.00
1594, 2261.00
1595, 2264.00
1596, 2264.00
1597, 2266.00
1598, 2267.00
1599, 2268.00
1600, 2271.00
1601, 2272.00
1602, 2274.00
1603, 2276.00
1604, 2278.00
1605, 2279.00
1606, 2281.00
1607, 2282.00
1608, 2284.00
1609, 2287.00
1610, 2289.00
1611, 2290.00
1612, 2293.00
1613, 2295.00
1614, 2297.00
1615, 2299.00
1616, 2300.00
1617, 2303.00
1618, 2305.00
1619, 2307.00
1620, 2307.00
1621, 2311.00
1622, 2312.00
1623, 2314.00
1624, 2315.00
1625, 2318.00
1626, 2320.00
1627, 2322.00
1628, 2324.00
1629, 2326.00
1630, 2328.00
1631, 2330.00
1632, 2331.00
1633, 2333.00
1634, 2334.00
1635, 2337.00
1636, 2338.00
1637, 2340.00
1638, 2342.00
1639, 2343.00
1640, 2345.00
1641, 2348.00
1642, 2348.00
1643, 2349.00
1644, 2351.00
1645, 2354.00
1646, 2355.00
1647, 2357.00
1648, 2359.00
1649, 2360.00
1650, 2361.00

1750, 2776.00
1751, 2777.00
1752, 2777.00
1753, 2778.00
1754, 2777.00
1755, 2777.00
1756, 2778.00
1757, 2778.00
1758, 2777.00
1759, 2776.00
1760, 2776.00
1761, 2776.00
1762, 2777.00
1763, 2776.00
1764, 2775.00
1765, 2775.00
1766, 2776.00
1767, 2776.00
1768, 2775.00
1769, 2773.00
1770, 2773.00
1771, 2774.00
1772, 2772.00
1773, 2772.00
1774, 2771.00
1775, 2770.00
1776, 2772.00
1777, 2770.00
1778, 2770.00
1779, 2768.00
1780, 2769.00
1781, 2768.00
1782, 2766.00
1783, 2767.00
1784, 2764.00
1785, 2764.00
1786, 2766.00
1787, 2764.00
1788, 2764.00
1789, 2761.00
1790, 2760.00
1791, 2761.00
1792, 2762.00
1793, 2759.00
1794, 2760.00
1795, 2757.00
1796, 2757.00
1797, 2757.00
1798, 2757.00
1799, 2756.00
1800, 2755.00
1801, 2754.00
1802, 2754.00
1803, 2753.00
1804, 2752.00
1805, 2751.00
1806, 2752.00
1807, 2752.00
1808, 2750.00
1809, 2749.00
1810, 2749.00
1811, 2746.00
1812, 2746.00
1813, 2746.00
1814, 2746.00
1815, 2746.00
1816, 2745.00
1817, 2743.00
1818, 2744.00
1819, 2739.00
1820, 2738.00
1821, 2739.00
1822, 2735.00
1823, 2736.00
1824, 2735.00
1825, 2732.00
1826, 2730.00
1827, 2730.00
1828, 2727.00
1829, 2725.00
1830, 2724.00
1831, 2723.00
1832, 2719.00
1833, 2718.00
1834, 2715.00
1835, 2714.00
1836, 2712.00
1837, 2709.00
1838, 2706.00
1839, 2704.00
1840, 2702.00
1841, 2699.00
1842, 2695.00
1843, 2690.00
1844, 2689.00
1845, 2686.00
1846, 2683.00
1847, 2682.00
1848, 2678.00
1849, 2674.00
1850, 2671.00
1851, 2669.00
1852, 2666.00
1853, 2663.00
1854, 2659.00
1855, 2657.00
1856, 2654.00
1857, 2653.00
1858, 2647.00
1859, 2646.00
1860, 2643.00
1861, 2642.00
1862, 2640.00
1863, 2637.00
1864, 2637.00
1865, 2633.00
1866, 2631.00
1867, 2628.00
1868, 2626.00
1869, 2627.00
1870, 2623.00
1871, 2623.00
1872, 2619.00
1873, 2619.00
1874, 2617.00
1875, 2616.00
1876, 2615.00
1877, 2612.00
1878, 2611.00
1879, 2609.00
1880, 2609.00
1881, 2609.00
1882, 2607.00
1883, 2607.00
1884, 2605.00
1885, 2607.00
1886, 2604.00
1887, 2604.00
1888, 2604.00
1889, 2601.00
1890, 2600.00
1891, 2600.00
1892, 2601.00
1893, 2602.00
1894, 2599.00
1895, 2601.00
1896, 2599.00
1897, 2596.00
1898, 2596.00
1899, 2597.00
1900, 2596.00
1901, 2595.00
1902, 2593.00
1903, 2594.00
1904, 2593.00
1905, 2596.00
1906, 2593.00
1907, 2592.00
1908, 2592.00
1909, 2593.00
1910, 2592.00
1911, 2593.00
1912, 2591.00
1913, 2591.00
1914, 2593.00
1915, 2591.00
1916, 2591.00
1917, 2592.00
1918, 2591.00
1919, 2591.00
1920, 2590.00
1921, 2590.00
1922, 2592.00
1923, 2589.00
1924, 2590.00
1925, 2590.00
1926, 2590.00
1927, 2591.00
1928, 2591.00
1929, 2590.00
1930, 2588.00
1931, 2589.00
1932, 2591.00
1933, 2592.00
1934, 2591.00
1935, 2590.00
1936, 2590.00
1937, 2590.00
1938, 2592.00
1939, 2593.00
1940, 2590.00
1941, 2590.00
1942, 2594.00
1943, 2592.00
1944, 2593.00
1945, 2591.00
1946, 2591.00
1947, 2592.00
1948, 2594.00
1949, 2594.00
1950, 2593.00
1951, 2596.00
1952, 2594.00
1953, 2595.00
1954, 2597.00
1955, 2595.00
1956, 2596.00
1957, 2597.00
1958, 2598.00
1959, 2596.00
1960, 2599.00
1961, 2599.00
1962, 2598.00
1963, 2599.00
1964, 2601.00
1965, 2601.00
1966, 2602.00
1967, 2602.00
1968, 2603.00
1969, 2602.00
1970, 2604.00
1971, 2606.00
1972, 2607.00
1973, 2606.00
1974, 2606.00
1975, 2606.00
1976, 2608.00
1977, 2609.00
1978, 2609.00
1979, 2610.00
1980, 2610.00
1981, 2609.00
1982, 2610.00
1983, 2615.00
1984, 2613.00
1985, 2613.00
1986, 2614.00
1987, 2614.00
1988, 2613.00
1989, 2615.00
1990, 2617.00
1991, 2617.00
1992, 2619.00
1993, 2617.00
1994, 2619.00
1995, 2619.00
1996, 2620.00
1997, 2624.00
1998, 2623.00
1999, 2621.00
2000, 2624.00
2001, 2621.00
2002, 2623.00
2003, 2625.00
2004, 2623.00
2005, 2625.00
2006, 2628.00
2007, 2627.00
2008, 2627.00
2009, 2629.00
2010, 2629.00
2011, 2630.00
2012, 2630.00
2013, 2631.00
2014, 2630.00
2015, 2632.00
2016, 2633.00
2017, 2633.00
2018, 2636.00
2019, 2633.00
2020, 2634.00
2021, 2637.00
2022, 2636.00
2023, 2637.00
2024, 2639.00
2025, 2639.00
2026, 2638.00
2027, 2640.00
2028, 2642.00
2029, 2641.00
2030, 2644.00
2031, 2644.00
2032, 2644.00
2033, 2645.00
2034, 2644.00
2035, 2645.00
2036, 2647.00
2037, 2649.00
2038, 2648.00
2039, 2649.00
2040, 2650.00
2041, 2651.00
2042, 2653.00
2043, 2653.00
2044, 2655.00
2045, 2655.00
2046, 2655.00
2047, 2657.00
2048, 2656.00
2049, 2659.00
2050, 2659.00
2051, 2661.00
2052, 2661.00
2053, 2665.00
2054, 2664.00
2055, 2665.00
2056, 2666.00
2057, 2667.00
2058, 2669.00
2059, 2670.00
2060, 2670.00
2061, 2673.00
2062, 2673.00
2063, 2673.00
2064, 2672.00
2065, 2675.00
2066, 2675.00
2067, 2678.00
2068, 2679.00
2069, 2679.00
2070, 2682.00
2071, 2680.00
2072, 2683.00
2073, 2683.00
2074, 2683.00
2075, 2686.00
2076, 2689.00
2077, 2688.00
2078, 2686.00
2079, 2689.00
2080, 2690.00
2081, 2690.00
2082, 2691.00
2083, 2693.00
2084, 2693.00
2085, 2695.00
2086, 2695.00
2087, 2698.00
2088, 2697.00
2089, 2699.00
2090, 2700.00
2091, 2700.00
2092, 2700.00
2093, 2701.00
2094, 2701.00
2095, 2702.00
2096, 2701.00
2097, 2703.00
2098, 2705.00
2099, 2707.00
2100, 2705.00
2101, 2708.00
2102, 2707.00
2103, 2707.00
2104, 2708.00
2105, 2708.00
2106, 2708.00
2107, 2711.00
2108, 2709.00
2109, 2711.00
2110, 2710.00
2111, 2712.00
2112, 2714.00
2113, 2714.00
2114, 2713.00
2115, 2713.00
2116, 2712.00
2117, 2715.00
2118, 2714.00
2119, 2715.00
2120, 2715.00
2121, 2715.00
2122, 2716.00
2123, 2715.00
2124, 2717.00
2125, 2719.00
2126, 2718.00
2127, 2718.00
2128, 2720.00
2129, 2719.00
2130, 2720.00
2131, 2723.00
2132, 2722.00
2133, 2720.00
2134, 2722.00
2135, 2723.00
2136, 2722.00
2137, 2722.00
2138, 2723.00
2139, 2723.00
2140, 2723.00
2141, 2726.00
2142, 2723.00
2143, 2724.00
2144, 2725.00
2145, 2727.00
2146, 2727.00
2147, 2727.00
2148, 2727.00
2149, 2726.00
2150, 2726.00
