FW version: 24
Log Version: 3.0.3

General Info:
       Command/Macro Performed,            Timestamp,             Device ID, COM Port, UART/I2C, Test Name, Host Major, Host Minor, Host Revision, Host Git Commit
            Single_measurement,  2023_07_18_10_49_52,       Insight2_F4_xxx,    USB-C,      USB,          ,          0,          1,             1,      4031237645

Show Spectrometer Status:
l0_version, f4_version, battery_perc, battery_mVolt, accelerometer_temp, accelerometer_x, accelerometer_y, accelerometer_z, compass_temp, compass_x, compass_y, compass_z, lamp_0, lamp_1, gain_0, gain_1
        17,         24,           71,          1981,               5840,           65252,             952,           18796,            0,     65525,     65531,     18942,   3276,   3276,      0,      0

Temperature Statistic Info:
NTC AVG [°C], NTC2 AVG [°C]
      36.891,        36.608

Statistic Info:
M1:  num,      min,      max,   median,      AVG,      STD,M2:  num,      min,      max,   median,      AVG,      STD
     301,   646.00,   735.00,   664.00,   675.75,  27.7271,     401,   839.00,   895.00,   862.00,   863.35,  18.1875,

Measurements:
Wavelength, Data Amplitude
1350, 663.00
1351, 662.00
1352, 663.00
1353, 662.00
1354, 662.00
1355, 662.00
1356, 661.00
1357, 661.00
1358, 661.00
1359, 660.00
1360, 660.00
1361, 659.00
1362, 659.00
1363, 658.00
1364, 659.00
1365, 658.00
1366, 658.00
1367, 657.00
1368, 657.00
1369, 656.00
1370, 656.00
1371, 655.00
1372, 655.00
1373, 654.00
1374, 654.00
1375, 653.00
1376, 653.00
1377, 653.00
1378, 652.00
1379, 652.00
1380, 651.00
1381, 651.00
1382, 651.00
1383, 651.00
1384, 651.00
1385, 650.00
1386, 650.00
1387, 650.00
1388, 650.00
1389, 649.00
1390, 649.00
1391, 649.00
1392, 649.00
1393, 649.00
1394, 649.00
1395, 648.00
1396, 648.00
1397, 648.00
1398, 648.00
1399, 648.00
1400, 648.00
1401, 648.00
1402, 647.00
1403, 647.00
1404, 647.00
1405, 647.00
1406, 647.00
1407, 647.00
1408, 647.00
1409, 647.00
1410, 647.00
1411, 647.00
1412, 647.00
1413, 646.00
1414, 646.00
1415, 647.00
1416, 647.00
1417, 647.00
1418, 646.00
1419, 646.00
1420, 647.00
1421, 647.00
1422, 647.00
1423, 646.00
1424, 647.00
1425, 647.00
1426, 647.00
1427, 647.00
1428, 647.00
1429, 647.00
1430, 647.00
1431, 647.00
1432, 647.00
1433, 647.00
1434, 647.00
1435, 647.00
1436, 648.00
1437, 648.00
1438, 648.00
1439, 647.00
1440, 648.00
1441, 648.00
1442, 648.00
1443, 648.00
1444, 649.00
1445, 649.00
1446, 649.00
1447, 649.00
1448, 649.00
1449, 649.00
1450, 650.00
1451, 649.00
1452, 649.00
1453, 649.00
1454, 650.00
1455, 650.00
1456, 651.00
1457, 651.00
1458, 651.00
1459, 651.00
1460, 652.00
1461, 652.00
1462, 652.00
1463, 652.00
1464, 653.00
1465, 653.00
1466, 653.00
1467, 653.00
1468, 654.00
1469, 653.00
1470, 654.00
1471, 654.00
1472, 655.00
1473, 655.00
1474, 655.00
1475, 656.00
1476, 656.00
1477, 656.00
1478, 657.00
1479, 657.00
1480, 658.00
1481, 658.00
1482, 658.00
1483, 658.00
1484, 659.00
1485, 659.00
1486, 660.00
1487, 660.00
1488, 661.00
1489, 660.00
1490, 661.00
1491, 661.00
1492, 662.00
1493, 662.00
1494, 663.00
1495, 663.00
1496, 663.00
1497, 664.00
1498, 664.00
1499, 664.00
1500, 664.00
1501, 664.00
1502, 665.00
1503, 666.00
1504, 666.00
1505, 666.00
1506, 667.00
1507, 667.00
1508, 667.00
1509, 668.00
1510, 669.00
1511, 668.00
1512, 669.00
1513, 670.00
1514, 670.00
1515, 670.00
1516, 671.00
1517, 671.00
1518, 672.00
1519, 672.00
1520, 673.00
1521, 673.00
1522, 673.00
1523, 674.00
1524, 674.00
1525, 675.00
1526, 675.00
1527, 676.00
1528, 676.00
1529, 677.00
1530, 677.00
1531, 678.00
1532, 678.00
1533, 678.00
1534, 679.00
1535, 679.00
1536, 680.00
1537, 680.00
1538, 681.00
1539, 681.00
1540, 682.00
1541, 682.00
1542, 683.00
1543, 683.00
1544, 684.00
1545, 684.00
1546, 684.00
1547, 685.00
1548, 685.00
1549, 686.00
1550, 686.00
1551, 687.00
1552, 687.00
1553, 688.00
1554, 688.00
1555, 689.00
1556, 689.00
1557, 689.00
1558, 690.00
1559, 691.00
1560, 691.00
1561, 692.00
1562, 692.00
1563, 693.00
1564, 693.00
1565, 694.00
1566, 694.00
1567, 695.00
1568, 695.00
1569, 696.00
1570, 697.00
1571, 696.00
1572, 697.00
1573, 698.00
1574, 698.00
1575, 699.00
1576, 699.00
1577, 699.00
1578, 700.00
1579, 701.00
1580, 701.00
1581, 701.00
1582, 702.00
1583, 702.00
1584, 703.00
1585, 703.00
1586, 704.00
1587, 704.00
1588, 704.00
1589, 705.00
1590, 705.00
1591, 706.00
1592, 706.00
1593, 707.00
1594, 707.00
1595, 707.00
1596, 708.00
1597, 709.00
1598, 709.00
1599, 710.00
1600, 710.00
1601, 710.00
1602, 710.00
1603, 711.00
1604, 712.00
1605, 712.00
1606, 713.00
1607, 713.00
1608, 714.00
1609, 714.00
1610, 715.00
1611, 715.00
1612, 716.00
1613, 716.00
1614, 717.00
1615, 718.00
1616, 718.00
1617, 719.00
1618, 719.00
1619, 720.00
1620, 720.00
1621, 721.00
1622, 721.00
1623, 722.00
1624, 723.00
1625, 724.00
1626, 724.00
1627, 724.00
1628, 725.00
1629, 726.00
1630, 726.00
1631, 727.00
1632, 727.00
1633, 728.00
1634, 728.00
1635, 728.00
1636, 729.00
1637, 729.00
1638, 730.00
1639, 731.00
1640, 730.00
1641, 731.00
1642, 731.00
1643, 732.00
1644, 733.00
1645, 733.00
1646, 734.00
1647, 734.00
1648, 734.00
1649, 735.00
1650, 735.00

1750, 895.00
1751, 894.00
1752, 894.00
1753, 894.00
1754, 895.00
1755, 895.00
1756, 894.00
1757, 895.00
1758, 894.00
1759, 894.00
1760, 894.00
1761, 894.00
1762, 894.00
1763, 894.00
1764, 894.00
1765, 894.00
1766, 893.00
1767, 893.00
1768, 893.00
1769, 894.00
1770, 893.00
1771, 894.00
1772, 893.00
1773, 893.00
1774, 893.00
1775, 893.00
1776, 893.00
1777, 893.00
1778, 892.00
1779, 892.00
1780, 891.00
1781, 891.00
1782, 891.00
1783, 891.00
1784, 891.00
1785, 891.00
1786, 891.00
1787, 890.00
1788, 890.00
1789, 891.00
1790, 890.00
1791, 890.00
1792, 890.00
1793, 889.00
1794, 889.00
1795, 888.00
1796, 889.00
1797, 889.00
1798, 889.00
1799, 888.00
1800, 889.00
1801, 888.00
1802, 888.00
1803, 887.00
1804, 887.00
1805, 888.00
1806, 887.00
1807, 887.00
1808, 887.00
1809, 886.00
1810, 887.00
1811, 887.00
1812, 886.00
1813, 885.00
1814, 885.00
1815, 885.00
1816, 885.00
1817, 885.00
1818, 884.00
1819, 884.00
1820, 884.00
1821, 883.00
1822, 883.00
1823, 883.00
1824, 882.00
1825, 881.00
1826, 882.00
1827, 881.00
1828, 880.00
1829, 880.00
1830, 880.00
1831, 879.00
1832, 879.00
1833, 878.00
1834, 877.00
1835, 876.00
1836, 876.00
1837, 875.00
1838, 875.00
1839, 873.00
1840, 873.00
1841, 872.00
1842, 872.00
1843, 870.00
1844, 870.00
1845, 869.00
1846, 868.00
1847, 867.00
1848, 867.00
1849, 865.00
1850, 865.00
1851, 863.00
1852, 863.00
1853, 862.00
1854, 861.00
1855, 860.00
1856, 859.00
1857, 859.00
1858, 858.00
1859, 857.00
1860, 856.00
1861, 855.00
1862, 855.00
1863, 854.00
1864, 853.00
1865, 854.00
1866, 851.00
1867, 851.00
1868, 850.00
1869, 850.00
1870, 849.00
1871, 849.00
1872, 849.00
1873, 848.00
1874, 848.00
1875, 848.00
1876, 846.00
1877, 847.00
1878, 846.00
1879, 846.00
1880, 846.00
1881, 845.00
1882, 845.00
1883, 845.00
1884, 845.00
1885, 844.00
1886, 844.00
1887, 843.00
1888, 844.00
1889, 843.00
1890, 843.00
1891, 842.00
1892, 842.00
1893, 843.00
1894, 842.00
1895, 843.00
1896, 842.00
1897, 842.00
1898, 842.00
1899, 841.00
1900, 841.00
1901, 841.00
1902, 841.00
1903, 841.00
1904, 841.00
1905, 841.00
1906, 840.00
1907, 840.00
1908, 840.00
1909, 841.00
1910, 840.00
1911, 840.00
1912, 840.00
1913, 840.00
1914, 840.00
1915, 840.00
1916, 839.00
1917, 840.00
1918, 840.00
1919, 840.00
1920, 840.00
1921, 840.00
1922, 839.00
1923, 840.00
1924, 839.00
1925, 840.00
1926, 840.00
1927, 840.00
1928, 839.00
1929, 839.00
1930, 840.00
1931, 839.00
1932, 840.00
1933, 840.00
1934, 840.00
1935, 840.00
1936, 840.00
1937, 840.00
1938, 839.00
1939, 840.00
1940, 840.00
1941, 840.00
1942, 840.00
1943, 840.00
1944, 840.00
1945, 840.00
1946, 841.00
1947, 841.00
1948, 841.00
1949, 840.00
1950, 841.00
1951, 841.00
1952, 841.00
1953, 841.00
1954, 841.00
1955, 841.00
1956, 841.00
1957, 841.00
1958, 842.00
1959, 842.00
1960, 843.00
1961, 842.00
1962, 843.00
1963, 842.00
1964, 842.00
1965, 842.00
1966, 844.00
1967, 843.00
1968, 843.00
1969, 843.00
1970, 844.00
1971, 844.00
1972, 844.00
1973, 844.00
1974, 844.00
1975, 844.00
1976, 845.00
1977, 845.00
1978, 845.00
1979, 845.00
1980, 845.00
1981, 845.00
1982, 846.00
1983, 846.00
1984, 846.00
1985, 847.00
1986, 846.00
1987, 847.00
1988, 847.00
1989, 847.00
1990, 847.00
1991, 848.00
1992, 847.00
1993, 848.00
1994, 848.00
1995, 848.00
1996, 849.00
1997, 849.00
1998, 849.00
1999, 849.00
2000, 849.00
2001, 850.00
2002, 850.00
2003, 849.00
2004, 850.00
2005, 851.00
2006, 850.00
2007, 850.00
2008, 851.00
2009, 851.00
2010, 851.00
2011, 851.00
2012, 852.00
2013, 852.00
2014, 852.00
2015, 852.00
2016, 852.00
2017, 853.00
2018, 853.00
2019, 853.00
2020, 853.00
2021, 854.00
2022, 853.00
2023, 854.00
2024, 854.00
2025, 854.00
2026, 855.00
2027, 855.00
2028, 855.00
2029, 856.00
2030, 856.00
2031, 855.00
2032, 856.00
2033, 855.00
2034, 857.00
2035, 857.00
2036, 857.00
2037, 857.00
2038, 857.00
2039, 858.00
2040, 858.00
2041, 858.00
2042, 859.00
2043, 858.00
2044, 859.00
2045, 860.00
2046, 859.00
2047, 860.00
2048, 861.00
2049, 860.00
2050, 860.00
2051, 860.00
2052, 861.00
2053, 862.00
2054, 862.00
2055, 863.00
2056, 864.00
2057, 862.00
2058, 863.00
2059, 863.00
2060, 863.00
2061, 863.00
2062, 865.00
2063, 864.00
2064, 865.00
2065, 866.00
2066, 866.00
2067, 866.00
2068, 866.00
2069, 866.00
2070, 867.00
2071, 867.00
2072, 867.00
2073, 868.00
2074, 868.00
2075, 868.00
2076, 868.00
2077, 869.00
2078, 869.00
2079, 869.00
2080, 869.00
2081, 870.00
2082, 870.00
2083, 871.00
2084, 870.00
2085, 871.00
2086, 871.00
2087, 872.00
2088, 872.00
2089, 872.00
2090, 873.00
2091, 873.00
2092, 873.00
2093, 873.00
2094, 873.00
2095, 873.00
2096, 874.00
2097, 873.00
2098, 874.00
2099, 874.00
2100, 874.00
2101, 875.00
2102, 875.00
2103, 876.00
2104, 875.00
2105, 875.00
2106, 876.00
2107, 875.00
2108, 875.00
2109, 876.00
2110, 876.00
2111, 876.00
2112, 876.00
2113, 876.00
2114, 877.00
2115, 877.00
2116, 877.00
2117, 877.00
2118, 877.00
2119, 877.00
2120, 877.00
2121, 877.00
2122, 877.00
2123, 878.00
2124, 877.00
2125, 878.00
2126, 878.00
2127, 878.00
2128, 878.00
2129, 878.00
2130, 878.00
2131, 878.00
2132, 879.00
2133, 878.00
2134, 880.00
2135, 879.00
2136, 879.00
2137, 880.00
2138, 880.00
2139, 879.00
2140, 879.00
2141, 880.00
2142, 880.00
2143, 881.00
2144, 880.00
2145, 880.00
2146, 881.00
2147, 881.00
2148, 881.00
2149, 881.00
2150, 880.00
